#  E (eV)   dos(E)     Int dos(E) EFermi =    6.732 eV
   5.000  0.1362E+01  0.1690E+02
   5.010  0.1357E+01  0.1691E+02
   5.020  0.1353E+01  0.1693E+02
   5.030  0.1349E+01  0.1694E+02
   5.040  0.1346E+01  0.1695E+02
   5.050  0.1342E+01  0.1697E+02
   5.060  0.1339E+01  0.1698E+02
   5.070  0.1337E+01  0.1699E+02
   5.080  0.1335E+01  0.1701E+02
   5.090  0.1334E+01  0.1702E+02
   5.100  0.1351E+01  0.1703E+02
   5.110  0.1377E+01  0.1705E+02
   5.120  0.1390E+01  0.1706E+02
   5.130  0.1389E+01  0.1707E+02
   5.140  0.1381E+01  0.1709E+02
   5.150  0.1375E+01  0.1710E+02
   5.160  0.1371E+01  0.1712E+02
   5.170  0.1368E+01  0.1713E+02
   5.180  0.1366E+01  0.1714E+02
   5.190  0.1363E+01  0.1716E+02
   5.200  0.1360E+01  0.1717E+02
   5.210  0.1422E+01  0.1719E+02
   5.220  0.1351E+01  0.1720E+02
   5.230  0.1345E+01  0.1721E+02
   5.240  0.1339E+01  0.1723E+02
   5.250  0.1332E+01  0.1724E+02
   5.260  0.1325E+01  0.1725E+02
   5.270  0.1319E+01  0.1727E+02
   5.280  0.1312E+01  0.1728E+02
   5.290  0.1305E+01  0.1729E+02
   5.300  0.1298E+01  0.1730E+02
   5.310  0.1291E+01  0.1732E+02
   5.320  0.1332E+01  0.1733E+02
   5.330  0.1358E+01  0.1734E+02
   5.340  0.1367E+01  0.1736E+02
   5.350  0.1360E+01  0.1737E+02
   5.360  0.1339E+01  0.1738E+02
   5.370  0.1302E+01  0.1740E+02
   5.380  0.1279E+01  0.1741E+02
   5.390  0.1263E+01  0.1742E+02
   5.400  0.1245E+01  0.1744E+02
   5.410  0.1236E+01  0.1745E+02
   5.420  0.1225E+01  0.1746E+02
   5.430  0.1199E+01  0.1747E+02
   5.440  0.1170E+01  0.1748E+02
   5.450  0.1137E+01  0.1750E+02
   5.460  0.1100E+01  0.1751E+02
   5.470  0.1062E+01  0.1752E+02
   5.480  0.1026E+01  0.1753E+02
   5.490  0.9937E+00  0.1754E+02
   5.500  0.9653E+00  0.1755E+02
   5.510  0.9408E+00  0.1756E+02
   5.520  0.9203E+00  0.1757E+02
   5.530  0.9033E+00  0.1758E+02
   5.540  0.8871E+00  0.1759E+02
   5.550  0.8711E+00  0.1759E+02
   5.560  0.8556E+00  0.1760E+02
   5.570  0.8403E+00  0.1761E+02
   5.580  0.8253E+00  0.1762E+02
   5.590  0.8107E+00  0.1763E+02
   5.600  0.7964E+00  0.1764E+02
   5.610  0.7824E+00  0.1764E+02
   5.620  0.7686E+00  0.1765E+02
   5.630  0.7552E+00  0.1766E+02
   5.640  0.7420E+00  0.1767E+02
   5.650  0.7292E+00  0.1767E+02
   5.660  0.7167E+00  0.1768E+02
   5.670  0.7046E+00  0.1769E+02
   5.680  0.6850E+00  0.1770E+02
   5.690  0.6659E+00  0.1770E+02
   5.700  0.6650E+00  0.1771E+02
   5.710  0.6810E+00  0.1772E+02
   5.720  0.6694E+00  0.1772E+02
   5.730  0.6582E+00  0.1773E+02
   5.740  0.6476E+00  0.1774E+02
   5.750  0.6374E+00  0.1774E+02
   5.760  0.6273E+00  0.1775E+02
   5.770  0.6174E+00  0.1775E+02
   5.780  0.6076E+00  0.1776E+02
   5.790  0.5979E+00  0.1777E+02
   5.800  0.5884E+00  0.1777E+02
   5.810  0.5789E+00  0.1778E+02
   5.820  0.5696E+00  0.1778E+02
   5.830  0.5605E+00  0.1779E+02
   5.840  0.5515E+00  0.1780E+02
   5.850  0.5426E+00  0.1780E+02
   5.860  0.5338E+00  0.1781E+02
   5.870  0.5252E+00  0.1781E+02
   5.880  0.5167E+00  0.1782E+02
   5.890  0.5083E+00  0.1782E+02
   5.900  0.5000E+00  0.1783E+02
   5.910  0.4919E+00  0.1783E+02
   5.920  0.4839E+00  0.1784E+02
   5.930  0.5357E+00  0.1784E+02
   5.940  0.5364E+00  0.1785E+02
   5.950  0.4853E+00  0.1785E+02
   5.960  0.4493E+00  0.1786E+02
   5.970  0.4412E+00  0.1786E+02
   5.980  0.4331E+00  0.1787E+02
   5.990  0.4289E+00  0.1787E+02
   6.000  0.4241E+00  0.1787E+02
   6.010  0.4188E+00  0.1788E+02
   6.020  0.4129E+00  0.1788E+02
   6.030  0.4065E+00  0.1789E+02
   6.040  0.3991E+00  0.1789E+02
   6.050  0.3907E+00  0.1789E+02
   6.060  0.3825E+00  0.1790E+02
   6.070  0.3744E+00  0.1790E+02
   6.080  0.3663E+00  0.1791E+02
   6.090  0.3584E+00  0.1791E+02
   6.100  0.3505E+00  0.1791E+02
   6.110  0.3427E+00  0.1792E+02
   6.120  0.3350E+00  0.1792E+02
   6.130  0.3273E+00  0.1792E+02
   6.140  0.3198E+00  0.1793E+02
   6.150  0.3123E+00  0.1793E+02
   6.160  0.3048E+00  0.1793E+02
   6.170  0.2975E+00  0.1794E+02
   6.180  0.2902E+00  0.1794E+02
   6.190  0.2830E+00  0.1794E+02
   6.200  0.2759E+00  0.1794E+02
   6.210  0.2688E+00  0.1795E+02
   6.220  0.2618E+00  0.1795E+02
   6.230  0.2549E+00  0.1795E+02
   6.240  0.2478E+00  0.1796E+02
   6.250  0.2398E+00  0.1796E+02
   6.260  0.2309E+00  0.1796E+02
   6.270  0.2210E+00  0.1796E+02
   6.280  0.2101E+00  0.1796E+02
   6.290  0.2012E+00  0.1797E+02
   6.300  0.1965E+00  0.1797E+02
   6.310  0.1917E+00  0.1797E+02
   6.320  0.1867E+00  0.1797E+02
   6.330  0.1815E+00  0.1797E+02
   6.340  0.1762E+00  0.1798E+02
   6.350  0.1708E+00  0.1798E+02
   6.360  0.1652E+00  0.1798E+02
   6.370  0.1594E+00  0.1798E+02
   6.380  0.1535E+00  0.1798E+02
   6.390  0.1474E+00  0.1798E+02
   6.400  0.1412E+00  0.1799E+02
   6.410  0.1348E+00  0.1799E+02
   6.420  0.1283E+00  0.1799E+02
   6.430  0.1216E+00  0.1799E+02
   6.440  0.1148E+00  0.1799E+02
   6.450  0.1078E+00  0.1799E+02
   6.460  0.1007E+00  0.1799E+02
   6.470  0.9340E-01  0.1799E+02
   6.480  0.8596E-01  0.1799E+02
   6.490  0.7837E-01  0.1800E+02
   6.500  0.7062E-01  0.1800E+02
   6.510  0.6409E-01  0.1800E+02
   6.520  0.5290E-01  0.1800E+02
   6.530  0.4278E-01  0.1800E+02
   6.540  0.3374E-01  0.1800E+02
   6.550  0.2577E-01  0.1800E+02
   6.560  0.1887E-01  0.1800E+02
   6.570  0.1304E-01  0.1800E+02
   6.580  0.8289E-02  0.1800E+02
   6.590  0.4608E-02  0.1800E+02
   6.600  0.2000E-02  0.1800E+02
   6.610  0.4650E-03  0.1800E+02
   6.620  0.0000E+00  0.1800E+02
   6.630  0.0000E+00  0.1800E+02
   6.640  0.0000E+00  0.1800E+02
   6.650  0.0000E+00  0.1800E+02
   6.660  0.0000E+00  0.1800E+02
   6.670  0.0000E+00  0.1800E+02
   6.680  0.0000E+00  0.1800E+02
   6.690  0.0000E+00  0.1800E+02
   6.700  0.0000E+00  0.1800E+02
   6.710  0.0000E+00  0.1800E+02
   6.720  0.0000E+00  0.1800E+02
   6.730  0.0000E+00  0.1800E+02
   6.740  0.0000E+00  0.1800E+02
   6.750  0.0000E+00  0.1800E+02
   6.760  0.0000E+00  0.1800E+02
   6.770  0.0000E+00  0.1800E+02
   6.780  0.0000E+00  0.1800E+02
   6.790  0.0000E+00  0.1800E+02
   6.800  0.0000E+00  0.1800E+02
   6.810  0.0000E+00  0.1800E+02
   6.820  0.0000E+00  0.1800E+02
   6.830  0.0000E+00  0.1800E+02
   6.840  0.0000E+00  0.1800E+02
   6.850  0.0000E+00  0.1800E+02
   6.860  0.0000E+00  0.1800E+02
   6.870  0.0000E+00  0.1800E+02
   6.880  0.0000E+00  0.1800E+02
   6.890  0.0000E+00  0.1800E+02
   6.900  0.0000E+00  0.1800E+02
   6.910  0.0000E+00  0.1800E+02
   6.920  0.0000E+00  0.1800E+02
   6.930  0.0000E+00  0.1800E+02
   6.940  0.0000E+00  0.1800E+02
   6.950  0.0000E+00  0.1800E+02
   6.960  0.0000E+00  0.1800E+02
   6.970  0.0000E+00  0.1800E+02
   6.980  0.0000E+00  0.1800E+02
   6.990  0.0000E+00  0.1800E+02
   7.000  0.0000E+00  0.1800E+02
   7.010  0.0000E+00  0.1800E+02
   7.020  0.0000E+00  0.1800E+02
   7.030  0.0000E+00  0.1800E+02
   7.040  0.0000E+00  0.1800E+02
   7.050  0.0000E+00  0.1800E+02
   7.060  0.8085E-06  0.1800E+02
   7.070  0.3664E-05  0.1800E+02
   7.080  0.8579E-05  0.1800E+02
   7.090  0.1555E-04  0.1800E+02
   7.100  0.2459E-04  0.1800E+02
   7.110  0.3568E-04  0.1800E+02
   7.120  0.4884E-04  0.1800E+02
   7.130  0.6405E-04  0.1800E+02
   7.140  0.8133E-04  0.1800E+02
   7.150  0.1007E-03  0.1800E+02
   7.160  0.1221E-03  0.1800E+02
   7.170  0.1455E-03  0.1800E+02
   7.180  0.1710E-03  0.1800E+02
   7.190  0.1986E-03  0.1800E+02
   7.200  0.2282E-03  0.1800E+02
   7.210  0.2599E-03  0.1800E+02
   7.220  0.2937E-03  0.1800E+02
   7.230  0.3295E-03  0.1800E+02
   7.240  0.3674E-03  0.1800E+02
   7.250  0.4073E-03  0.1800E+02
   7.260  0.4493E-03  0.1800E+02
   7.270  0.4934E-03  0.1800E+02
   7.280  0.5395E-03  0.1800E+02
   7.290  0.5876E-03  0.1800E+02
   7.300  0.6379E-03  0.1800E+02
   7.310  0.6902E-03  0.1800E+02
   7.320  0.7445E-03  0.1800E+02
   7.330  0.8009E-03  0.1800E+02
   7.340  0.8594E-03  0.1800E+02
   7.350  0.9199E-03  0.1800E+02
   7.360  0.9825E-03  0.1800E+02
   7.370  0.1047E-02  0.1800E+02
   7.380  0.1114E-02  0.1800E+02
   7.390  0.1183E-02  0.1800E+02
   7.400  0.1254E-02  0.1800E+02
   7.410  0.1326E-02  0.1800E+02
   7.420  0.1401E-02  0.1800E+02
   7.430  0.1478E-02  0.1800E+02
   7.440  0.1557E-02  0.1800E+02
   7.450  0.1639E-02  0.1800E+02
   7.460  0.1722E-02  0.1800E+02
   7.470  0.1807E-02  0.1800E+02
   7.480  0.1894E-02  0.1800E+02
   7.490  0.1984E-02  0.1800E+02
   7.500  0.2075E-02  0.1800E+02
   7.510  0.2169E-02  0.1800E+02
   7.520  0.2277E-02  0.1800E+02
   7.530  0.2502E-02  0.1800E+02
   7.540  0.2867E-02  0.1800E+02
   7.550  0.3370E-02  0.1800E+02
   7.560  0.4012E-02  0.1800E+02
   7.570  0.4793E-02  0.1800E+02
   7.580  0.5693E-02  0.1800E+02
   7.590  0.6662E-02  0.1800E+02
   7.600  0.7697E-02  0.1800E+02
   7.610  0.8799E-02  0.1800E+02
   7.620  0.9966E-02  0.1800E+02
   7.630  0.1120E-01  0.1800E+02
   7.640  0.1250E-01  0.1800E+02
   7.650  0.1387E-01  0.1800E+02
   7.660  0.1530E-01  0.1800E+02
   7.670  0.1680E-01  0.1800E+02
   7.680  0.1837E-01  0.1800E+02
   7.690  0.2000E-01  0.1800E+02
   7.700  0.2170E-01  0.1800E+02
   7.710  0.2346E-01  0.1800E+02
   7.720  0.2529E-01  0.1800E+02
   7.730  0.2719E-01  0.1800E+02
   7.740  0.2915E-01  0.1800E+02
   7.750  0.3118E-01  0.1800E+02
   7.760  0.3328E-01  0.1800E+02
   7.770  0.3545E-01  0.1800E+02
   7.780  0.3769E-01  0.1800E+02
   7.790  0.3999E-01  0.1800E+02
   7.800  0.4237E-01  0.1801E+02
   7.810  0.4481E-01  0.1801E+02
   7.820  0.4732E-01  0.1801E+02
   7.830  0.4990E-01  0.1801E+02
   7.840  0.5254E-01  0.1801E+02
   7.850  0.5526E-01  0.1801E+02
   7.860  0.5804E-01  0.1801E+02
   7.870  0.6089E-01  0.1801E+02
   7.880  0.6381E-01  0.1801E+02
   7.890  0.6680E-01  0.1801E+02
   7.900  0.7001E-01  0.1801E+02
   7.910  0.7425E-01  0.1801E+02
   7.920  0.7995E-01  0.1801E+02
   7.930  0.8754E-01  0.1801E+02
   7.940  0.9615E-01  0.1801E+02
   7.950  0.1055E+00  0.1802E+02
   7.960  0.1155E+00  0.1802E+02
   7.970  0.1262E+00  0.1802E+02
   7.980  0.1377E+00  0.1802E+02
   7.990  0.1499E+00  0.1802E+02
   8.000  0.1628E+00  0.1802E+02
   8.010  0.1765E+00  0.1802E+02
   8.020  0.1909E+00  0.1803E+02
   8.030  0.2061E+00  0.1803E+02
   8.040  0.2220E+00  0.1803E+02
   8.050  0.2387E+00  0.1803E+02
   8.060  0.2561E+00  0.1803E+02
   8.070  0.2743E+00  0.1804E+02
   8.080  0.2868E+00  0.1804E+02
   8.090  0.2987E+00  0.1804E+02
   8.100  0.3112E+00  0.1805E+02
   8.110  0.3243E+00  0.1805E+02
   8.120  0.3379E+00  0.1805E+02
   8.130  0.3521E+00  0.1806E+02
   8.140  0.3669E+00  0.1806E+02
   8.150  0.3823E+00  0.1806E+02
   8.160  0.3982E+00  0.1807E+02
   8.170  0.4619E+00  0.1807E+02
   8.180  0.4792E+00  0.1808E+02
   8.190  0.4971E+00  0.1808E+02
   8.200  0.5111E+00  0.1809E+02
   8.210  0.5249E+00  0.1809E+02
   8.220  0.5388E+00  0.1810E+02
   8.230  0.5528E+00  0.1810E+02
   8.240  0.5669E+00  0.1811E+02
   8.250  0.5811E+00  0.1812E+02
   8.260  0.5954E+00  0.1812E+02
   8.270  0.6655E+00  0.1813E+02
   8.280  0.6027E+00  0.1813E+02
   8.290  0.6166E+00  0.1814E+02
   8.300  0.6305E+00  0.1815E+02
   8.310  0.6445E+00  0.1815E+02
   8.320  0.6586E+00  0.1816E+02
   8.330  0.6729E+00  0.1817E+02
   8.340  0.6873E+00  0.1817E+02
   8.350  0.7017E+00  0.1818E+02
   8.360  0.7162E+00  0.1819E+02
   8.370  0.7308E+00  0.1819E+02
   8.380  0.7454E+00  0.1820E+02
   8.390  0.7601E+00  0.1821E+02
   8.400  0.7749E+00  0.1822E+02
   8.410  0.7897E+00  0.1823E+02
   8.420  0.8045E+00  0.1823E+02
   8.430  0.8194E+00  0.1824E+02
   8.440  0.8344E+00  0.1825E+02
   8.450  0.8495E+00  0.1826E+02
   8.460  0.9404E+00  0.1827E+02
   8.470  0.8796E+00  0.1828E+02
   8.480  0.8957E+00  0.1828E+02
   8.490  0.9128E+00  0.1829E+02
   8.500  0.9361E+00  0.1830E+02
   8.510  0.9669E+00  0.1831E+02
   8.520  0.1004E+01  0.1832E+02
   8.530  0.1023E+01  0.1833E+02
   8.540  0.1044E+01  0.1834E+02
   8.550  0.1065E+01  0.1835E+02
   8.560  0.1088E+01  0.1836E+02
   8.570  0.1112E+01  0.1838E+02
   8.580  0.1136E+01  0.1839E+02
   8.590  0.1162E+01  0.1840E+02
   8.600  0.1188E+01  0.1841E+02
   8.610  0.1216E+01  0.1842E+02
   8.620  0.1244E+01  0.1843E+02
   8.630  0.1272E+01  0.1845E+02
   8.640  0.1298E+01  0.1846E+02
   8.650  0.1319E+01  0.1847E+02
   8.660  0.1332E+01  0.1849E+02
   8.670  0.1337E+01  0.1850E+02
   8.680  0.1334E+01  0.1851E+02
   8.690  0.1326E+01  0.1853E+02
   8.700  0.1334E+01  0.1854E+02
   8.710  0.1350E+01  0.1855E+02
   8.720  0.1367E+01  0.1857E+02
   8.730  0.1386E+01  0.1858E+02
   8.740  0.1405E+01  0.1859E+02
   8.750  0.1425E+01  0.1861E+02
   8.760  0.1447E+01  0.1862E+02
   8.770  0.1470E+01  0.1864E+02
   8.780  0.1495E+01  0.1865E+02
   8.790  0.1523E+01  0.1867E+02
   8.800  0.1551E+01  0.1868E+02
   8.810  0.1580E+01  0.1870E+02
   8.820  0.1610E+01  0.1871E+02
   8.830  0.1644E+01  0.1873E+02
   8.840  0.1684E+01  0.1875E+02
   8.850  0.1732E+01  0.1876E+02
   8.860  0.1791E+01  0.1878E+02
   8.870  0.1907E+01  0.1880E+02
   8.880  0.1960E+01  0.1882E+02
   8.890  0.1928E+01  0.1884E+02
   8.900  0.1903E+01  0.1886E+02
   8.910  0.1898E+01  0.1888E+02
   8.920  0.1908E+01  0.1890E+02
   8.930  0.1918E+01  0.1891E+02
   8.940  0.1926E+01  0.1893E+02
   8.950  0.1932E+01  0.1895E+02
   8.960  0.1939E+01  0.1897E+02
   8.970  0.1947E+01  0.1899E+02
   8.980  0.1956E+01  0.1901E+02
   8.990  0.1964E+01  0.1903E+02
   9.000  0.1972E+01  0.1905E+02
   9.010  0.1979E+01  0.1907E+02
   9.020  0.2017E+01  0.1909E+02
   9.030  0.2067E+01  0.1911E+02
   9.040  0.2093E+01  0.1913E+02
   9.050  0.2091E+01  0.1915E+02
   9.060  0.2066E+01  0.1917E+02
   9.070  0.2042E+01  0.1919E+02
   9.080  0.2033E+01  0.1921E+02
   9.090  0.2025E+01  0.1923E+02
   9.100  0.2018E+01  0.1926E+02
   9.110  0.2012E+01  0.1928E+02
   9.120  0.2007E+01  0.1930E+02
   9.130  0.2002E+01  0.1932E+02
   9.140  0.1999E+01  0.1934E+02
   9.150  0.1980E+01  0.1936E+02
   9.160  0.1938E+01  0.1937E+02
   9.170  0.1900E+01  0.1939E+02
   9.180  0.1856E+01  0.1941E+02
   9.190  0.1807E+01  0.1943E+02
   9.200  0.1753E+01  0.1945E+02
   9.210  0.1679E+01  0.1947E+02
   9.220  0.1552E+01  0.1948E+02
   9.230  0.1514E+01  0.1950E+02
   9.240  0.1480E+01  0.1951E+02
   9.250  0.1451E+01  0.1953E+02
   9.260  0.1427E+01  0.1954E+02
   9.270  0.1387E+01  0.1956E+02
   9.280  0.1372E+01  0.1957E+02
   9.290  0.1355E+01  0.1958E+02
   9.300  0.1335E+01  0.1960E+02
   9.310  0.1315E+01  0.1961E+02
   9.320  0.1296E+01  0.1962E+02
   9.330  0.1276E+01  0.1964E+02
   9.340  0.1256E+01  0.1965E+02
   9.350  0.1236E+01  0.1966E+02
   9.360  0.1215E+01  0.1967E+02
   9.370  0.1195E+01  0.1969E+02
   9.380  0.1174E+01  0.1970E+02
   9.390  0.1153E+01  0.1971E+02
   9.400  0.1132E+01  0.1972E+02
   9.410  0.1111E+01  0.1973E+02
   9.420  0.1089E+01  0.1974E+02
   9.430  0.1069E+01  0.1975E+02
   9.440  0.1055E+01  0.1976E+02
   9.450  0.1040E+01  0.1977E+02
   9.460  0.1026E+01  0.1978E+02
   9.470  0.1011E+01  0.1979E+02
   9.480  0.9964E+00  0.1980E+02
   9.490  0.9815E+00  0.1981E+02
   9.500  0.9666E+00  0.1982E+02
   9.510  0.9514E+00  0.1983E+02
   9.520  0.9347E+00  0.1984E+02
   9.530  0.9181E+00  0.1985E+02
   9.540  0.9022E+00  0.1986E+02
   9.550  0.8861E+00  0.1987E+02
   9.560  0.8697E+00  0.1988E+02
   9.570  0.8531E+00  0.1989E+02
   9.580  0.8363E+00  0.1990E+02
   9.590  0.8193E+00  0.1990E+02
   9.600  0.8020E+00  0.1991E+02
   9.610  0.7852E+00  0.1992E+02
   9.620  0.7705E+00  0.1993E+02
   9.630  0.7578E+00  0.1994E+02
   9.640  0.7473E+00  0.1994E+02
   9.650  0.7389E+00  0.1995E+02
   9.660  0.7338E+00  0.1996E+02
   9.670  0.7334E+00  0.1997E+02
   9.680  0.7345E+00  0.1997E+02
   9.690  0.7371E+00  0.1998E+02
   9.700  0.7401E+00  0.1999E+02
   9.710  0.7440E+00  0.2000E+02
   9.720  0.7488E+00  0.2000E+02
   9.730  0.7548E+00  0.2001E+02
   9.740  0.7618E+00  0.2002E+02
   9.750  0.7699E+00  0.2003E+02
   9.760  0.7791E+00  0.2003E+02
   9.770  0.7893E+00  0.2004E+02
   9.780  0.8007E+00  0.2005E+02
   9.790  0.8132E+00  0.2006E+02
   9.800  0.8264E+00  0.2007E+02
   9.810  0.8435E+00  0.2007E+02
   9.820  0.8678E+00  0.2008E+02
   9.830  0.8991E+00  0.2009E+02
   9.840  0.9882E+00  0.2010E+02
   9.850  0.1053E+01  0.2011E+02
   9.860  0.1069E+01  0.2012E+02
   9.870  0.1036E+01  0.2013E+02
   9.880  0.1035E+01  0.2014E+02
   9.890  0.1019E+01  0.2015E+02
   9.900  0.9744E+00  0.2016E+02
   9.910  0.9221E+00  0.2017E+02
   9.920  0.9087E+00  0.2018E+02
   9.930  0.8959E+00  0.2019E+02
   9.940  0.8894E+00  0.2020E+02
   9.950  0.8900E+00  0.2021E+02
   9.960  0.8906E+00  0.2022E+02
   9.970  0.8915E+00  0.2023E+02
   9.980  0.8924E+00  0.2023E+02
   9.990  0.8935E+00  0.2024E+02
  10.000  0.8946E+00  0.2025E+02
  10.010  0.8957E+00  0.2026E+02
  10.020  0.8968E+00  0.2027E+02
  10.030  0.8979E+00  0.2028E+02
  10.040  0.8991E+00  0.2029E+02
  10.050  0.9002E+00  0.2030E+02
  10.060  0.9013E+00  0.2031E+02
  10.070  0.9020E+00  0.2032E+02
  10.080  0.9028E+00  0.2032E+02
  10.090  0.9040E+00  0.2033E+02
  10.100  0.9056E+00  0.2034E+02
  10.110  0.9079E+00  0.2035E+02
  10.120  0.9076E+00  0.2036E+02
  10.130  0.9044E+00  0.2037E+02
  10.140  0.8946E+00  0.2038E+02
  10.150  0.8803E+00  0.2039E+02
  10.160  0.8711E+00  0.2040E+02
  10.170  0.8625E+00  0.2041E+02
  10.180  0.8543E+00  0.2041E+02
  10.190  0.8465E+00  0.2042E+02
  10.200  0.8389E+00  0.2043E+02
  10.210  0.8318E+00  0.2044E+02
  10.220  0.8249E+00  0.2045E+02
  10.230  0.8184E+00  0.2046E+02
  10.240  0.8122E+00  0.2046E+02
  10.250  0.8063E+00  0.2047E+02
  10.260  0.8008E+00  0.2048E+02
  10.270  0.7956E+00  0.2049E+02
  10.280  0.7907E+00  0.2050E+02
  10.290  0.7867E+00  0.2050E+02
  10.300  0.7835E+00  0.2051E+02
  10.310  0.7811E+00  0.2052E+02
  10.320  0.7832E+00  0.2053E+02
  10.330  0.7983E+00  0.2054E+02
  10.340  0.8075E+00  0.2054E+02
  10.350  0.8136E+00  0.2055E+02
  10.360  0.8222E+00  0.2056E+02
  10.370  0.8344E+00  0.2057E+02
  10.380  0.8437E+00  0.2058E+02
  10.390  0.8491E+00  0.2058E+02
  10.400  0.8499E+00  0.2059E+02
  10.410  0.8471E+00  0.2060E+02
  10.420  0.8404E+00  0.2061E+02
  10.430  0.8315E+00  0.2062E+02
  10.440  0.8392E+00  0.2063E+02
  10.450  0.8493E+00  0.2064E+02
  10.460  0.8692E+00  0.2064E+02
  10.470  0.8804E+00  0.2065E+02
  10.480  0.8828E+00  0.2066E+02
  10.490  0.8765E+00  0.2067E+02
  10.500  0.8813E+00  0.2068E+02
  10.510  0.8880E+00  0.2069E+02
  10.520  0.8946E+00  0.2070E+02
  10.530  0.9013E+00  0.2071E+02
  10.540  0.9079E+00  0.2071E+02
  10.550  0.9146E+00  0.2072E+02
  10.560  0.9212E+00  0.2073E+02
  10.570  0.9277E+00  0.2074E+02
  10.580  0.9340E+00  0.2075E+02
  10.590  0.9401E+00  0.2076E+02
  10.600  0.9462E+00  0.2077E+02
  10.610  0.9521E+00  0.2078E+02
  10.620  0.9579E+00  0.2079E+02
  10.630  0.9636E+00  0.2080E+02
  10.640  0.9691E+00  0.2081E+02
  10.650  0.9745E+00  0.2082E+02
  10.660  0.9798E+00  0.2083E+02
  10.670  0.9850E+00  0.2084E+02
  10.680  0.9900E+00  0.2085E+02
  10.690  0.9950E+00  0.2086E+02
  10.700  0.9998E+00  0.2087E+02
  10.710  0.1004E+01  0.2088E+02
  10.720  0.1009E+01  0.2089E+02
  10.730  0.1013E+01  0.2090E+02
  10.740  0.1042E+01  0.2091E+02
  10.750  0.1103E+01  0.2092E+02
  10.760  0.1193E+01  0.2093E+02
  10.770  0.1297E+01  0.2094E+02
  10.780  0.1370E+01  0.2096E+02
  10.790  0.1436E+01  0.2097E+02
  10.800  0.1501E+01  0.2098E+02
  10.810  0.1564E+01  0.2100E+02
  10.820  0.1628E+01  0.2102E+02
  10.830  0.1693E+01  0.2103E+02
  10.840  0.1758E+01  0.2105E+02
  10.850  0.1822E+01  0.2107E+02
  10.860  0.1885E+01  0.2109E+02
  10.870  0.1948E+01  0.2111E+02
  10.880  0.2014E+01  0.2113E+02
  10.890  0.2084E+01  0.2115E+02
  10.900  0.2153E+01  0.2117E+02
  10.910  0.2217E+01  0.2119E+02
  10.920  0.2274E+01  0.2121E+02
  10.930  0.2325E+01  0.2123E+02
  10.940  0.2370E+01  0.2126E+02
  10.950  0.2417E+01  0.2128E+02
  10.960  0.2482E+01  0.2131E+02
  10.970  0.2566E+01  0.2133E+02
  10.980  0.2641E+01  0.2136E+02
  10.990  0.2672E+01  0.2138E+02
  11.000  0.2589E+01  0.2141E+02
  11.010  0.2341E+01  0.2144E+02
  11.020  0.2264E+01  0.2146E+02
  11.030  0.2185E+01  0.2148E+02
  11.040  0.2102E+01  0.2150E+02
  11.050  0.2016E+01  0.2152E+02
  11.060  0.1928E+01  0.2154E+02
  11.070  0.1820E+01  0.2156E+02
  11.080  0.1747E+01  0.2158E+02
  11.090  0.1705E+01  0.2160E+02
  11.100  0.1664E+01  0.2161E+02
  11.110  0.1623E+01  0.2163E+02
  11.120  0.1583E+01  0.2165E+02
  11.130  0.1544E+01  0.2166E+02
  11.140  0.1505E+01  0.2168E+02
  11.150  0.1464E+01  0.2169E+02
  11.160  0.1422E+01  0.2171E+02
  11.170  0.1381E+01  0.2172E+02
  11.180  0.1343E+01  0.2173E+02
  11.190  0.1308E+01  0.2175E+02
  11.200  0.1277E+01  0.2176E+02
  11.210  0.1247E+01  0.2177E+02
  11.220  0.1237E+01  0.2178E+02
  11.230  0.1247E+01  0.2180E+02
  11.240  0.1199E+01  0.2181E+02
  11.250  0.1180E+01  0.2182E+02
  11.260  0.1154E+01  0.2183E+02
  11.270  0.1169E+01  0.2184E+02
  11.280  0.1158E+01  0.2186E+02
  11.290  0.1144E+01  0.2187E+02
  11.300  0.1145E+01  0.2188E+02
  11.310  0.1144E+01  0.2189E+02
  11.320  0.1143E+01  0.2190E+02
  11.330  0.1140E+01  0.2191E+02
  11.340  0.1137E+01  0.2192E+02
  11.350  0.1134E+01  0.2194E+02
  11.360  0.1129E+01  0.2195E+02
  11.370  0.1133E+01  0.2196E+02
  11.380  0.1139E+01  0.2197E+02
  11.390  0.1144E+01  0.2198E+02
  11.400  0.1147E+01  0.2199E+02
  11.410  0.1148E+01  0.2200E+02
  11.420  0.1148E+01  0.2202E+02
  11.430  0.1145E+01  0.2203E+02
  11.440  0.1140E+01  0.2204E+02
  11.450  0.1134E+01  0.2205E+02
  11.460  0.1125E+01  0.2206E+02
  11.470  0.1114E+01  0.2207E+02
  11.480  0.1100E+01  0.2208E+02
  11.490  0.1096E+01  0.2209E+02
  11.500  0.1093E+01  0.2211E+02
  11.510  0.1089E+01  0.2212E+02
  11.520  0.1086E+01  0.2213E+02
  11.530  0.1083E+01  0.2214E+02
  11.540  0.1080E+01  0.2215E+02
  11.550  0.1076E+01  0.2216E+02
  11.560  0.1074E+01  0.2217E+02
  11.570  0.1071E+01  0.2218E+02
  11.580  0.1069E+01  0.2219E+02
  11.590  0.1067E+01  0.2220E+02
  11.600  0.1066E+01  0.2221E+02
  11.610  0.1066E+01  0.2222E+02
  11.620  0.1067E+01  0.2223E+02
  11.630  0.1069E+01  0.2224E+02
  11.640  0.1071E+01  0.2226E+02
  11.650  0.1073E+01  0.2227E+02
  11.660  0.1076E+01  0.2228E+02
  11.670  0.1079E+01  0.2229E+02
  11.680  0.1083E+01  0.2230E+02
  11.690  0.1088E+01  0.2231E+02
  11.700  0.1093E+01  0.2232E+02
  11.710  0.1099E+01  0.2233E+02
  11.720  0.1105E+01  0.2234E+02
  11.730  0.1113E+01  0.2235E+02
  11.740  0.1121E+01  0.2236E+02
  11.750  0.1130E+01  0.2238E+02
  11.760  0.1142E+01  0.2239E+02
  11.770  0.1156E+01  0.2240E+02
  11.780  0.1169E+01  0.2241E+02
  11.790  0.1184E+01  0.2242E+02
  11.800  0.1199E+01  0.2243E+02
  11.810  0.1215E+01  0.2245E+02
  11.820  0.1231E+01  0.2246E+02
  11.830  0.1249E+01  0.2247E+02
  11.840  0.1265E+01  0.2248E+02
  11.850  0.1283E+01  0.2250E+02
  11.860  0.1308E+01  0.2251E+02
  11.870  0.1337E+01  0.2252E+02
  11.880  0.1369E+01  0.2254E+02
  11.890  0.1402E+01  0.2255E+02
  11.900  0.1435E+01  0.2256E+02
  11.910  0.1484E+01  0.2258E+02
  11.920  0.1549E+01  0.2259E+02
  11.930  0.1604E+01  0.2261E+02
  11.940  0.1647E+01  0.2263E+02
  11.950  0.1680E+01  0.2264E+02
  11.960  0.1703E+01  0.2266E+02
  11.970  0.1722E+01  0.2268E+02
  11.980  0.1767E+01  0.2269E+02
  11.990  0.1791E+01  0.2271E+02
  12.000  0.1810E+01  0.2273E+02
  12.010  0.1828E+01  0.2275E+02
  12.020  0.1843E+01  0.2277E+02
  12.030  0.1855E+01  0.2278E+02
  12.040  0.1908E+01  0.2280E+02
  12.050  0.1914E+01  0.2282E+02
  12.060  0.1888E+01  0.2284E+02
  12.070  0.1871E+01  0.2286E+02
  12.080  0.1844E+01  0.2288E+02
  12.090  0.1807E+01  0.2290E+02
  12.100  0.1760E+01  0.2292E+02
  12.110  0.1652E+01  0.2293E+02
  12.120  0.1622E+01  0.2295E+02
  12.130  0.1594E+01  0.2297E+02
  12.140  0.1572E+01  0.2298E+02
  12.150  0.1554E+01  0.2300E+02
  12.160  0.1541E+01  0.2301E+02
  12.170  0.1534E+01  0.2303E+02
  12.180  0.1530E+01  0.2304E+02
  12.190  0.1517E+01  0.2306E+02
  12.200  0.1451E+01  0.2307E+02
  12.210  0.1436E+01  0.2309E+02
  12.220  0.1421E+01  0.2310E+02
  12.230  0.1408E+01  0.2312E+02
  12.240  0.1453E+01  0.2313E+02
  12.250  0.1361E+01  0.2314E+02
  12.260  0.1355E+01  0.2316E+02
  12.270  0.1348E+01  0.2317E+02
  12.280  0.1342E+01  0.2318E+02
  12.290  0.1336E+01  0.2320E+02
  12.300  0.1330E+01  0.2321E+02
  12.310  0.1325E+01  0.2322E+02
  12.320  0.1319E+01  0.2324E+02
  12.330  0.1315E+01  0.2325E+02
  12.340  0.1310E+01  0.2326E+02
  12.350  0.1305E+01  0.2328E+02
  12.360  0.1301E+01  0.2329E+02
  12.370  0.1297E+01  0.2330E+02
  12.380  0.1294E+01  0.2332E+02
  12.390  0.1291E+01  0.2333E+02
  12.400  0.1289E+01  0.2334E+02
  12.410  0.1287E+01  0.2336E+02
  12.420  0.1285E+01  0.2337E+02
  12.430  0.1284E+01  0.2338E+02
  12.440  0.1283E+01  0.2339E+02
  12.450  0.1283E+01  0.2341E+02
  12.460  0.1282E+01  0.2342E+02
  12.470  0.1282E+01  0.2343E+02
  12.480  0.1283E+01  0.2344E+02
  12.490  0.1284E+01  0.2346E+02
  12.500  0.1284E+01  0.2347E+02
  12.510  0.1285E+01  0.2348E+02
  12.520  0.1286E+01  0.2350E+02
  12.530  0.1287E+01  0.2351E+02
  12.540  0.1287E+01  0.2352E+02
  12.550  0.1287E+01  0.2353E+02
  12.560  0.1286E+01  0.2355E+02
  12.570  0.1286E+01  0.2356E+02
  12.580  0.1285E+01  0.2357E+02
  12.590  0.1284E+01  0.2359E+02
  12.600  0.1283E+01  0.2360E+02
  12.610  0.1281E+01  0.2361E+02
  12.620  0.1282E+01  0.2362E+02
  12.630  0.1285E+01  0.2364E+02
  12.640  0.1289E+01  0.2365E+02
  12.650  0.1292E+01  0.2366E+02
  12.660  0.1294E+01  0.2368E+02
  12.670  0.1297E+01  0.2369E+02
  12.680  0.1299E+01  0.2370E+02
  12.690  0.1301E+01  0.2372E+02
  12.700  0.1302E+01  0.2373E+02
  12.710  0.1304E+01  0.2374E+02
  12.720  0.1305E+01  0.2375E+02
  12.730  0.1306E+01  0.2377E+02
  12.740  0.1306E+01  0.2378E+02
  12.750  0.1307E+01  0.2379E+02
  12.760  0.1307E+01  0.2381E+02
  12.770  0.1307E+01  0.2382E+02
  12.780  0.1328E+01  0.2383E+02
  12.790  0.1303E+01  0.2385E+02
  12.800  0.1252E+01  0.2386E+02
  12.810  0.1200E+01  0.2387E+02
  12.820  0.1147E+01  0.2388E+02
  12.830  0.1085E+01  0.2389E+02
  12.840  0.1026E+01  0.2390E+02
  12.850  0.9895E+00  0.2391E+02
  12.860  0.9628E+00  0.2392E+02
  12.870  0.9433E+00  0.2393E+02
  12.880  0.9309E+00  0.2394E+02
  12.890  0.9195E+00  0.2395E+02
  12.900  0.9083E+00  0.2396E+02
  12.910  0.8973E+00  0.2397E+02
  12.920  0.8865E+00  0.2398E+02
  12.930  0.8764E+00  0.2399E+02
  12.940  0.8682E+00  0.2400E+02
  12.950  0.8603E+00  0.2401E+02
  12.960  0.8527E+00  0.2401E+02
  12.970  0.8453E+00  0.2402E+02
  12.980  0.8382E+00  0.2403E+02
  12.990  0.8313E+00  0.2404E+02
  13.000  0.8247E+00  0.2405E+02
  13.010  0.8183E+00  0.2406E+02
  13.020  0.8122E+00  0.2406E+02
  13.030  0.8063E+00  0.2407E+02
  13.040  0.8007E+00  0.2408E+02
  13.050  0.7954E+00  0.2409E+02
  13.060  0.7903E+00  0.2410E+02
  13.070  0.7855E+00  0.2410E+02
  13.080  0.7810E+00  0.2411E+02
  13.090  0.7767E+00  0.2412E+02
  13.100  0.7727E+00  0.2413E+02
  13.110  0.7690E+00  0.2414E+02
  13.120  0.7655E+00  0.2414E+02
  13.130  0.7623E+00  0.2415E+02
  13.140  0.8164E+00  0.2416E+02
  13.150  0.7850E+00  0.2417E+02
  13.160  0.7614E+00  0.2418E+02
  13.170  0.7457E+00  0.2418E+02
  13.180  0.7378E+00  0.2419E+02
  13.190  0.7364E+00  0.2420E+02
  13.200  0.7359E+00  0.2420E+02
  13.210  0.7354E+00  0.2421E+02
  13.220  0.7350E+00  0.2422E+02
  13.230  0.7346E+00  0.2423E+02
  13.240  0.7342E+00  0.2423E+02
  13.250  0.7339E+00  0.2424E+02
  13.260  0.7336E+00  0.2425E+02
  13.270  0.7333E+00  0.2426E+02
  13.280  0.7329E+00  0.2426E+02
  13.290  0.7326E+00  0.2427E+02
  13.300  0.7325E+00  0.2428E+02
  13.310  0.7326E+00  0.2429E+02
  13.320  0.7329E+00  0.2429E+02
  13.330  0.7335E+00  0.2430E+02
  13.340  0.7342E+00  0.2431E+02
  13.350  0.7351E+00  0.2431E+02
  13.360  0.7362E+00  0.2432E+02
  13.370  0.7375E+00  0.2433E+02
  13.380  0.7390E+00  0.2434E+02
  13.390  0.7407E+00  0.2434E+02
  13.400  0.7426E+00  0.2435E+02
  13.410  0.7447E+00  0.2436E+02
  13.420  0.7470E+00  0.2437E+02
  13.430  0.7495E+00  0.2437E+02
  13.440  0.7522E+00  0.2438E+02
  13.450  0.7551E+00  0.2439E+02
  13.460  0.7608E+00  0.2440E+02
  13.470  0.7736E+00  0.2440E+02
  13.480  0.7935E+00  0.2441E+02
  13.490  0.8204E+00  0.2442E+02
  13.500  0.8543E+00  0.2443E+02
  13.510  0.8776E+00  0.2444E+02
  13.520  0.8848E+00  0.2445E+02
  13.530  0.8964E+00  0.2446E+02
  13.540  0.9239E+00  0.2446E+02
  13.550  0.9543E+00  0.2447E+02
  13.560  0.9835E+00  0.2448E+02
  13.570  0.1011E+01  0.2449E+02
  13.580  0.1038E+01  0.2450E+02
  13.590  0.1063E+01  0.2451E+02
  13.600  0.1086E+01  0.2452E+02
  13.610  0.1106E+01  0.2454E+02
  13.620  0.1124E+01  0.2455E+02
  13.630  0.1140E+01  0.2456E+02
  13.640  0.1155E+01  0.2457E+02
  13.650  0.1170E+01  0.2458E+02
  13.660  0.1184E+01  0.2459E+02
  13.670  0.1197E+01  0.2460E+02
  13.680  0.1211E+01  0.2462E+02
  13.690  0.1224E+01  0.2463E+02
  13.700  0.1237E+01  0.2464E+02
  13.710  0.1250E+01  0.2465E+02
  13.720  0.1263E+01  0.2467E+02
  13.730  0.1276E+01  0.2468E+02
  13.740  0.1290E+01  0.2469E+02
  13.750  0.1303E+01  0.2470E+02
  13.760  0.1317E+01  0.2472E+02
  13.770  0.1332E+01  0.2473E+02
  13.780  0.1348E+01  0.2474E+02
  13.790  0.1361E+01  0.2476E+02
  13.800  0.1376E+01  0.2477E+02
  13.810  0.1392E+01  0.2479E+02
  13.820  0.1401E+01  0.2480E+02
  13.830  0.1406E+01  0.2481E+02
  13.840  0.1410E+01  0.2483E+02
  13.850  0.1411E+01  0.2484E+02
  13.860  0.1412E+01  0.2486E+02
  13.870  0.1410E+01  0.2487E+02
  13.880  0.1407E+01  0.2488E+02
  13.890  0.1402E+01  0.2490E+02
  13.900  0.1397E+01  0.2491E+02
  13.910  0.1398E+01  0.2493E+02
  13.920  0.1400E+01  0.2494E+02
  13.930  0.1400E+01  0.2495E+02
  13.940  0.1401E+01  0.2497E+02
  13.950  0.1401E+01  0.2498E+02
  13.960  0.1401E+01  0.2500E+02
  13.970  0.1400E+01  0.2501E+02
  13.980  0.1398E+01  0.2502E+02
  13.990  0.1390E+01  0.2504E+02
  14.000  0.1388E+01  0.2505E+02
  14.010  0.1391E+01  0.2507E+02
  14.020  0.1398E+01  0.2508E+02
  14.030  0.1393E+01  0.2509E+02
  14.040  0.1362E+01  0.2511E+02
  14.050  0.1335E+01  0.2512E+02
  14.060  0.1311E+01  0.2513E+02
  14.070  0.1291E+01  0.2515E+02
  14.080  0.1273E+01  0.2516E+02
  14.090  0.1259E+01  0.2517E+02
  14.100  0.1246E+01  0.2519E+02
  14.110  0.1234E+01  0.2520E+02
  14.120  0.1221E+01  0.2521E+02
  14.130  0.1209E+01  0.2522E+02
  14.140  0.1197E+01  0.2523E+02
  14.150  0.1186E+01  0.2525E+02
  14.160  0.1176E+01  0.2526E+02
  14.170  0.1166E+01  0.2527E+02
  14.180  0.1154E+01  0.2528E+02
  14.190  0.1144E+01  0.2529E+02
  14.200  0.1134E+01  0.2530E+02
  14.210  0.1124E+01  0.2532E+02
  14.220  0.1114E+01  0.2533E+02
  14.230  0.1105E+01  0.2534E+02
  14.240  0.1095E+01  0.2535E+02
  14.250  0.1088E+01  0.2536E+02
  14.260  0.1081E+01  0.2537E+02
  14.270  0.1074E+01  0.2538E+02
  14.280  0.1067E+01  0.2539E+02
  14.290  0.1061E+01  0.2540E+02
  14.300  0.1055E+01  0.2541E+02
  14.310  0.1049E+01  0.2542E+02
  14.320  0.1043E+01  0.2543E+02
  14.330  0.1037E+01  0.2544E+02
  14.340  0.1032E+01  0.2545E+02
  14.350  0.1027E+01  0.2547E+02
  14.360  0.1022E+01  0.2548E+02
  14.370  0.1017E+01  0.2549E+02
  14.380  0.1013E+01  0.2550E+02
  14.390  0.1009E+01  0.2551E+02
  14.400  0.1006E+01  0.2552E+02
  14.410  0.1004E+01  0.2553E+02
  14.420  0.1001E+01  0.2554E+02
  14.430  0.9996E+00  0.2555E+02
  14.440  0.9982E+00  0.2556E+02
  14.450  0.1009E+01  0.2557E+02
  14.460  0.1022E+01  0.2558E+02
  14.470  0.1027E+01  0.2559E+02
  14.480  0.2253E+01  0.2560E+02
  14.490  0.1022E+01  0.2561E+02
  14.500  0.9334E+00  0.2562E+02
  14.510  0.9036E+00  0.2563E+02
  14.520  0.8764E+00  0.2564E+02
  14.530  0.8519E+00  0.2565E+02
  14.540  0.8301E+00  0.2566E+02
  14.550  0.8123E+00  0.2566E+02
  14.560  0.8006E+00  0.2567E+02
  14.570  0.7917E+00  0.2568E+02
  14.580  0.7961E+00  0.2569E+02
  14.590  0.8060E+00  0.2570E+02
  14.600  0.8167E+00  0.2570E+02
  14.610  0.8282E+00  0.2571E+02
  14.620  0.8404E+00  0.2572E+02
  14.630  0.8528E+00  0.2573E+02
  14.640  0.8657E+00  0.2574E+02
  14.650  0.8788E+00  0.2575E+02
  14.660  0.8955E+00  0.2576E+02
  14.670  0.9130E+00  0.2576E+02
  14.680  0.9400E+00  0.2577E+02
  14.690  0.9422E+00  0.2578E+02
  14.700  0.9611E+00  0.2579E+02
  14.710  0.9772E+00  0.2580E+02
  14.720  0.9919E+00  0.2581E+02
  14.730  0.1005E+01  0.2582E+02
  14.740  0.1017E+01  0.2583E+02
  14.750  0.1028E+01  0.2584E+02
  14.760  0.1038E+01  0.2585E+02
  14.770  0.1046E+01  0.2586E+02
  14.780  0.1037E+01  0.2587E+02
  14.790  0.1024E+01  0.2588E+02
  14.800  0.1020E+01  0.2589E+02
  14.810  0.1019E+01  0.2590E+02
  14.820  0.1017E+01  0.2591E+02
  14.830  0.1015E+01  0.2592E+02
  14.840  0.1013E+01  0.2593E+02
  14.850  0.1005E+01  0.2594E+02
  14.860  0.9970E+00  0.2595E+02
  14.870  0.9899E+00  0.2596E+02
  14.880  0.9836E+00  0.2597E+02
  14.890  0.9779E+00  0.2598E+02
  14.900  0.9712E+00  0.2599E+02
  14.910  0.9632E+00  0.2600E+02
  14.920  0.9546E+00  0.2601E+02
  14.930  0.9453E+00  0.2602E+02
  14.940  0.9354E+00  0.2603E+02
  14.950  0.9264E+00  0.2604E+02
  14.960  0.9203E+00  0.2605E+02
  14.970  0.9158E+00  0.2606E+02
  14.980  0.9125E+00  0.2607E+02
  14.990  0.9104E+00  0.2608E+02
  15.000  0.9095E+00  0.2609E+02
  15.010  0.9098E+00  0.2610E+02
  15.020  0.9114E+00  0.2611E+02
  15.030  0.9147E+00  0.2611E+02
  15.040  0.9178E+00  0.2612E+02
  15.050  0.9210E+00  0.2613E+02
  15.060  0.9246E+00  0.2614E+02
  15.070  0.9286E+00  0.2615E+02
  15.080  0.9330E+00  0.2616E+02
  15.090  0.9379E+00  0.2617E+02
  15.100  0.9432E+00  0.2618E+02
  15.110  0.9489E+00  0.2619E+02
  15.120  0.9550E+00  0.2620E+02
  15.130  0.9608E+00  0.2621E+02
  15.140  0.9664E+00  0.2622E+02
  15.150  0.9720E+00  0.2623E+02
  15.160  0.9777E+00  0.2624E+02
  15.170  0.9834E+00  0.2625E+02
  15.180  0.9887E+00  0.2626E+02
  15.190  0.9938E+00  0.2627E+02
  15.200  0.9993E+00  0.2628E+02
  15.210  0.1005E+01  0.2629E+02
  15.220  0.1011E+01  0.2630E+02
  15.230  0.1016E+01  0.2631E+02
  15.240  0.1023E+01  0.2632E+02
  15.250  0.1030E+01  0.2633E+02
  15.260  0.1037E+01  0.2634E+02
  15.270  0.1045E+01  0.2635E+02
  15.280  0.1052E+01  0.2636E+02
  15.290  0.1061E+01  0.2637E+02
  15.300  0.1069E+01  0.2638E+02
  15.310  0.1078E+01  0.2639E+02
  15.320  0.1087E+01  0.2640E+02
  15.330  0.1097E+01  0.2641E+02
  15.340  0.1105E+01  0.2642E+02
  15.350  0.1115E+01  0.2643E+02
  15.360  0.1129E+01  0.2645E+02
  15.370  0.1150E+01  0.2646E+02
  15.380  0.1170E+01  0.2647E+02
  15.390  0.1190E+01  0.2648E+02
  15.400  0.1210E+01  0.2649E+02
  15.410  0.1230E+01  0.2650E+02
  15.420  0.1250E+01  0.2652E+02
  15.430  0.1269E+01  0.2653E+02
  15.440  0.1287E+01  0.2654E+02
  15.450  0.1305E+01  0.2656E+02
  15.460  0.1322E+01  0.2657E+02
  15.470  0.1339E+01  0.2658E+02
  15.480  0.1356E+01  0.2660E+02
  15.490  0.1372E+01  0.2661E+02
  15.500  0.1388E+01  0.2662E+02
  15.510  0.1402E+01  0.2664E+02
  15.520  0.1414E+01  0.2665E+02
  15.530  0.1425E+01  0.2667E+02
  15.540  0.1434E+01  0.2668E+02
  15.550  0.1442E+01  0.2669E+02
  15.560  0.1450E+01  0.2671E+02
  15.570  0.1457E+01  0.2672E+02
  15.580  0.1463E+01  0.2674E+02
  15.590  0.1459E+01  0.2675E+02
  15.600  0.1461E+01  0.2677E+02
  15.610  0.1464E+01  0.2678E+02
  15.620  0.1468E+01  0.2680E+02
  15.630  0.1476E+01  0.2681E+02
  15.640  0.1484E+01  0.2683E+02
  15.650  0.1484E+01  0.2684E+02
  15.660  0.1483E+01  0.2685E+02
  15.670  0.1486E+01  0.2687E+02
  15.680  0.1487E+01  0.2688E+02
  15.690  0.1486E+01  0.2690E+02
  15.700  0.1484E+01  0.2691E+02
  15.710  0.1480E+01  0.2693E+02
  15.720  0.1473E+01  0.2694E+02
  15.730  0.1463E+01  0.2696E+02
  15.740  0.1460E+01  0.2697E+02
  15.750  0.1462E+01  0.2699E+02
  15.760  0.1464E+01  0.2700E+02
  15.770  0.1465E+01  0.2702E+02
  15.780  0.1467E+01  0.2703E+02
  15.790  0.1469E+01  0.2705E+02
  15.800  0.1471E+01  0.2706E+02
  15.810  0.1472E+01  0.2708E+02
  15.820  0.1472E+01  0.2709E+02
  15.830  0.1473E+01  0.2711E+02
  15.840  0.1473E+01  0.2712E+02
  15.850  0.1472E+01  0.2713E+02
  15.860  0.1472E+01  0.2715E+02
  15.870  0.1467E+01  0.2716E+02
  15.880  0.1462E+01  0.2718E+02
  15.890  0.1457E+01  0.2719E+02
  15.900  0.1453E+01  0.2721E+02
  15.910  0.1450E+01  0.2722E+02
  15.920  0.1448E+01  0.2724E+02
  15.930  0.1447E+01  0.2725E+02
  15.940  0.1446E+01  0.2727E+02
  15.950  0.1446E+01  0.2728E+02
  15.960  0.1446E+01  0.2729E+02
  15.970  0.1447E+01  0.2731E+02
  15.980  0.1449E+01  0.2732E+02
  15.990  0.1451E+01  0.2734E+02
  16.000  0.1453E+01  0.2735E+02
  16.010  0.1459E+01  0.2737E+02
  16.020  0.1465E+01  0.2738E+02
  16.030  0.1471E+01  0.2740E+02
  16.040  0.1538E+01  0.2741E+02
  16.050  0.1535E+01  0.2743E+02
  16.060  0.1532E+01  0.2744E+02
  16.070  0.1529E+01  0.2746E+02
  16.080  0.1528E+01  0.2747E+02
  16.090  0.1527E+01  0.2749E+02
  16.100  0.1526E+01  0.2750E+02
  16.110  0.1527E+01  0.2752E+02
  16.120  0.1525E+01  0.2753E+02
  16.130  0.1524E+01  0.2755E+02
  16.140  0.1522E+01  0.2756E+02
  16.150  0.1517E+01  0.2758E+02
  16.160  0.1511E+01  0.2759E+02
  16.170  0.1506E+01  0.2761E+02
  16.180  0.1501E+01  0.2762E+02
  16.190  0.1498E+01  0.2764E+02
  16.200  0.1495E+01  0.2765E+02
  16.210  0.1493E+01  0.2767E+02
  16.220  0.1492E+01  0.2768E+02
  16.230  0.1492E+01  0.2770E+02
  16.240  0.1493E+01  0.2771E+02
  16.250  0.1494E+01  0.2773E+02
  16.260  0.1496E+01  0.2774E+02
  16.270  0.1511E+01  0.2776E+02
  16.280  0.1524E+01  0.2777E+02
  16.290  0.1513E+01  0.2779E+02
  16.300  0.1480E+01  0.2780E+02
  16.310  0.1423E+01  0.2782E+02
  16.320  0.1378E+01  0.2783E+02
  16.330  0.1356E+01  0.2785E+02
  16.340  0.1365E+01  0.2786E+02
  16.350  0.1361E+01  0.2787E+02
  16.360  0.1337E+01  0.2789E+02
  16.370  0.1314E+01  0.2790E+02
  16.380  0.1305E+01  0.2791E+02
  16.390  0.1300E+01  0.2793E+02
  16.400  0.1297E+01  0.2794E+02
  16.410  0.1295E+01  0.2795E+02
  16.420  0.1294E+01  0.2797E+02
  16.430  0.1294E+01  0.2798E+02
  16.440  0.1294E+01  0.2799E+02
  16.450  0.1294E+01  0.2800E+02
  16.460  0.1295E+01  0.2802E+02
  16.470  0.1296E+01  0.2803E+02
  16.480  0.1297E+01  0.2804E+02
  16.490  0.1299E+01  0.2806E+02
  16.500  0.1300E+01  0.2807E+02
  16.510  0.1303E+01  0.2808E+02
  16.520  0.1306E+01  0.2810E+02
  16.530  0.1374E+01  0.2811E+02
  16.540  0.1308E+01  0.2812E+02
  16.550  0.1295E+01  0.2814E+02
  16.560  0.1295E+01  0.2815E+02
  16.570  0.1295E+01  0.2816E+02
  16.580  0.1295E+01  0.2817E+02
  16.590  0.1294E+01  0.2819E+02
  16.600  0.1287E+01  0.2820E+02
  16.610  0.1282E+01  0.2821E+02
  16.620  0.1278E+01  0.2823E+02
  16.630  0.1275E+01  0.2824E+02
  16.640  0.1274E+01  0.2825E+02
  16.650  0.1274E+01  0.2826E+02
  16.660  0.1275E+01  0.2828E+02
  16.670  0.1276E+01  0.2829E+02
  16.680  0.1278E+01  0.2830E+02
  16.690  0.1279E+01  0.2832E+02
  16.700  0.1280E+01  0.2833E+02
  16.710  0.1281E+01  0.2834E+02
  16.720  0.1282E+01  0.2835E+02
  16.730  0.1284E+01  0.2837E+02
  16.740  0.1285E+01  0.2838E+02
  16.750  0.1286E+01  0.2839E+02
  16.760  0.1288E+01  0.2841E+02
  16.770  0.1289E+01  0.2842E+02
  16.780  0.1290E+01  0.2843E+02
  16.790  0.1291E+01  0.2844E+02
  16.800  0.1291E+01  0.2846E+02
  16.810  0.1291E+01  0.2847E+02
  16.820  0.1291E+01  0.2848E+02
  16.830  0.1290E+01  0.2850E+02
  16.840  0.1289E+01  0.2851E+02
  16.850  0.1288E+01  0.2852E+02
  16.860  0.1292E+01  0.2853E+02
  16.870  0.1294E+01  0.2855E+02
  16.880  0.1295E+01  0.2856E+02
  16.890  0.1294E+01  0.2857E+02
  16.900  0.1291E+01  0.2859E+02
  16.910  0.1277E+01  0.2860E+02
  16.920  0.1267E+01  0.2861E+02
  16.930  0.1257E+01  0.2862E+02
  16.940  0.1252E+01  0.2864E+02
  16.950  0.1247E+01  0.2865E+02
  16.960  0.1242E+01  0.2866E+02
  16.970  0.1238E+01  0.2867E+02
  16.980  0.1234E+01  0.2869E+02
  16.990  0.1232E+01  0.2870E+02
  17.000  0.1233E+01  0.2871E+02
  17.010  0.1236E+01  0.2872E+02
  17.020  0.1242E+01  0.2874E+02
  17.030  0.1251E+01  0.2875E+02
  17.040  0.1261E+01  0.2876E+02
  17.050  0.1274E+01  0.2877E+02
  17.060  0.1288E+01  0.2879E+02
  17.070  0.1303E+01  0.2880E+02
  17.080  0.1320E+01  0.2881E+02
  17.090  0.1320E+01  0.2883E+02
  17.100  0.1311E+01  0.2884E+02
  17.110  0.1302E+01  0.2885E+02
  17.120  0.1294E+01  0.2886E+02
  17.130  0.1284E+01  0.2888E+02
  17.140  0.1271E+01  0.2889E+02
  17.150  0.1258E+01  0.2890E+02
  17.160  0.1249E+01  0.2892E+02
  17.170  0.1238E+01  0.2893E+02
  17.180  0.1223E+01  0.2894E+02
  17.190  0.1209E+01  0.2895E+02
  17.200  0.1200E+01  0.2896E+02
  17.210  0.1192E+01  0.2898E+02
  17.220  0.1184E+01  0.2899E+02
  17.230  0.1177E+01  0.2900E+02
  17.240  0.1169E+01  0.2901E+02
  17.250  0.1162E+01  0.2902E+02
  17.260  0.1156E+01  0.2903E+02
  17.270  0.1149E+01  0.2905E+02
  17.280  0.1143E+01  0.2906E+02
  17.290  0.1137E+01  0.2907E+02
  17.300  0.1131E+01  0.2908E+02
  17.310  0.1126E+01  0.2909E+02
  17.320  0.1122E+01  0.2910E+02
  17.330  0.1118E+01  0.2911E+02
  17.340  0.1114E+01  0.2913E+02
  17.350  0.1110E+01  0.2914E+02
  17.360  0.1107E+01  0.2915E+02
  17.370  0.1104E+01  0.2916E+02
  17.380  0.1097E+01  0.2917E+02
  17.390  0.1091E+01  0.2918E+02
  17.400  0.1084E+01  0.2919E+02
  17.410  0.1077E+01  0.2920E+02
  17.420  0.1070E+01  0.2921E+02
  17.430  0.1063E+01  0.2922E+02
  17.440  0.1055E+01  0.2923E+02
  17.450  0.1048E+01  0.2924E+02
  17.460  0.1040E+01  0.2926E+02
  17.470  0.1032E+01  0.2927E+02
  17.480  0.1024E+01  0.2928E+02
  17.490  0.1016E+01  0.2929E+02
  17.500  0.1008E+01  0.2930E+02
  17.510  0.9998E+00  0.2931E+02
  17.520  0.9929E+00  0.2932E+02
  17.530  0.9869E+00  0.2933E+02
  17.540  0.9826E+00  0.2934E+02
  17.550  0.9824E+00  0.2935E+02
  17.560  0.9824E+00  0.2936E+02
  17.570  0.9827E+00  0.2937E+02
  17.580  0.9831E+00  0.2938E+02
  17.590  0.9838E+00  0.2939E+02
  17.600  0.9847E+00  0.2940E+02
  17.610  0.9858E+00  0.2940E+02
  17.620  0.9871E+00  0.2941E+02
  17.630  0.9885E+00  0.2942E+02
  17.640  0.9901E+00  0.2943E+02
  17.650  0.9914E+00  0.2944E+02
  17.660  0.9925E+00  0.2945E+02
  17.670  0.9937E+00  0.2946E+02
  17.680  0.9951E+00  0.2947E+02
  17.690  0.9970E+00  0.2948E+02
  17.700  0.9995E+00  0.2949E+02
  17.710  0.1003E+01  0.2950E+02
  17.720  0.1006E+01  0.2951E+02
  17.730  0.1010E+01  0.2952E+02
  17.740  0.1014E+01  0.2953E+02
  17.750  0.1018E+01  0.2954E+02
  17.760  0.1023E+01  0.2955E+02
  17.770  0.1027E+01  0.2957E+02
  17.780  0.1032E+01  0.2958E+02
  17.790  0.1037E+01  0.2959E+02
  17.800  0.1043E+01  0.2960E+02
  17.810  0.1048E+01  0.2961E+02
  17.820  0.1054E+01  0.2962E+02
  17.830  0.1060E+01  0.2963E+02
  17.840  0.1066E+01  0.2964E+02
  17.850  0.1073E+01  0.2965E+02
  17.860  0.1080E+01  0.2966E+02
  17.870  0.1087E+01  0.2967E+02
  17.880  0.1094E+01  0.2968E+02
  17.890  0.1120E+01  0.2969E+02
  17.900  0.1176E+01  0.2970E+02
  17.910  0.1125E+01  0.2972E+02
  17.920  0.1132E+01  0.2973E+02
  17.930  0.1139E+01  0.2974E+02
  17.940  0.1146E+01  0.2975E+02
  17.950  0.1153E+01  0.2976E+02
  17.960  0.1161E+01  0.2977E+02
  17.970  0.1170E+01  0.2978E+02
  17.980  0.1180E+01  0.2980E+02
  17.990  0.1189E+01  0.2981E+02
  18.000  0.1200E+01  0.2982E+02
  18.010  0.1210E+01  0.2983E+02
  18.020  0.1221E+01  0.2984E+02
  18.030  0.1232E+01  0.2986E+02
  18.040  0.1243E+01  0.2987E+02
  18.050  0.1254E+01  0.2988E+02
  18.060  0.1265E+01  0.2989E+02
  18.070  0.1276E+01  0.2991E+02
  18.080  0.1287E+01  0.2992E+02
  18.090  0.1298E+01  0.2993E+02
  18.100  0.1310E+01  0.2995E+02
  18.110  0.1321E+01  0.2996E+02
  18.120  0.1338E+01  0.2997E+02
  18.130  0.1356E+01  0.2999E+02
  18.140  0.1372E+01  0.3000E+02
  18.150  0.1386E+01  0.3001E+02
  18.160  0.1396E+01  0.3003E+02
  18.170  0.1405E+01  0.3004E+02
  18.180  0.1410E+01  0.3005E+02
  18.190  0.1414E+01  0.3007E+02
  18.200  0.1414E+01  0.3008E+02
  18.210  0.1412E+01  0.3010E+02
  18.220  0.1409E+01  0.3011E+02
  18.230  0.1406E+01  0.3013E+02
  18.240  0.1405E+01  0.3014E+02
  18.250  0.1413E+01  0.3015E+02
  18.260  0.1442E+01  0.3017E+02
  18.270  0.1491E+01  0.3018E+02
  18.280  0.1559E+01  0.3020E+02
  18.290  0.1644E+01  0.3021E+02
  18.300  0.1731E+01  0.3023E+02
  18.310  0.1647E+01  0.3025E+02
  18.320  0.1600E+01  0.3026E+02
  18.330  0.1588E+01  0.3028E+02
  18.340  0.1591E+01  0.3030E+02
  18.350  0.1593E+01  0.3031E+02
  18.360  0.1596E+01  0.3033E+02
  18.370  0.1599E+01  0.3034E+02
  18.380  0.1602E+01  0.3036E+02
  18.390  0.1605E+01  0.3038E+02
  18.400  0.1608E+01  0.3039E+02
  18.410  0.1610E+01  0.3041E+02
  18.420  0.1612E+01  0.3042E+02
  18.430  0.1615E+01  0.3044E+02
  18.440  0.1618E+01  0.3046E+02
  18.450  0.1624E+01  0.3047E+02
  18.460  0.1632E+01  0.3049E+02
  18.470  0.1635E+01  0.3051E+02
  18.480  0.1633E+01  0.3052E+02
  18.490  0.1624E+01  0.3054E+02
  18.500  0.1611E+01  0.3055E+02
  18.510  0.1549E+01  0.3057E+02
  18.520  0.1475E+01  0.3058E+02
  18.530  0.1469E+01  0.3060E+02
  18.540  0.1470E+01  0.3061E+02
  18.550  0.1472E+01  0.3063E+02
  18.560  0.1478E+01  0.3064E+02
  18.570  0.1483E+01  0.3066E+02
  18.580  0.1488E+01  0.3067E+02
  18.590  0.1492E+01  0.3069E+02
  18.600  0.1496E+01  0.3070E+02
  18.610  0.1499E+01  0.3072E+02
  18.620  0.1502E+01  0.3073E+02
  18.630  0.1492E+01  0.3075E+02
  18.640  0.1481E+01  0.3076E+02
  18.650  0.1471E+01  0.3078E+02
  18.660  0.1461E+01  0.3079E+02
  18.670  0.1452E+01  0.3081E+02
  18.680  0.1448E+01  0.3082E+02
  18.690  0.1444E+01  0.3084E+02
  18.700  0.1441E+01  0.3085E+02
  18.710  0.1437E+01  0.3086E+02
  18.720  0.1434E+01  0.3088E+02
  18.730  0.1431E+01  0.3089E+02
  18.740  0.1428E+01  0.3091E+02
  18.750  0.1425E+01  0.3092E+02
  18.760  0.1423E+01  0.3094E+02
  18.770  0.1421E+01  0.3095E+02
  18.780  0.1419E+01  0.3096E+02
  18.790  0.1419E+01  0.3098E+02
  18.800  0.1419E+01  0.3099E+02
  18.810  0.1419E+01  0.3101E+02
  18.820  0.1420E+01  0.3102E+02
  18.830  0.1422E+01  0.3104E+02
  18.840  0.1425E+01  0.3105E+02
  18.850  0.1461E+01  0.3106E+02
  18.860  0.1495E+01  0.3108E+02
  18.870  0.1474E+01  0.3109E+02
  18.880  0.1440E+01  0.3111E+02
  18.890  0.1394E+01  0.3112E+02
  18.900  0.1335E+01  0.3114E+02
  18.910  0.1264E+01  0.3115E+02
  18.920  0.1210E+01  0.3116E+02
  18.930  0.1186E+01  0.3117E+02
  18.940  0.1163E+01  0.3119E+02
  18.950  0.1144E+01  0.3120E+02
  18.960  0.1127E+01  0.3121E+02
  18.970  0.1113E+01  0.3122E+02
  18.980  0.1102E+01  0.3123E+02
  18.990  0.1243E+01  0.3124E+02
  19.000  0.1089E+01  0.3125E+02
  19.010  0.1083E+01  0.3126E+02
  19.020  0.1076E+01  0.3128E+02
  19.030  0.1069E+01  0.3129E+02
  19.040  0.1063E+01  0.3130E+02
  19.050  0.1061E+01  0.3131E+02
  19.060  0.1064E+01  0.3132E+02
  19.070  0.1071E+01  0.3133E+02
  19.080  0.1085E+01  0.3134E+02
  19.090  0.1091E+01  0.3135E+02
  19.100  0.1093E+01  0.3136E+02
  19.110  0.1096E+01  0.3137E+02
  19.120  0.1100E+01  0.3138E+02
  19.130  0.1103E+01  0.3139E+02
  19.140  0.1108E+01  0.3141E+02
  19.150  0.1114E+01  0.3142E+02
  19.160  0.1120E+01  0.3143E+02
  19.170  0.1127E+01  0.3144E+02
  19.180  0.1135E+01  0.3145E+02
  19.190  0.1143E+01  0.3146E+02
  19.200  0.1151E+01  0.3147E+02
  19.210  0.1160E+01  0.3148E+02
  19.220  0.1169E+01  0.3150E+02
  19.230  0.1179E+01  0.3151E+02
  19.240  0.1189E+01  0.3152E+02
  19.250  0.1199E+01  0.3153E+02
  19.260  0.1209E+01  0.3154E+02
  19.270  0.1219E+01  0.3156E+02
  19.280  0.1229E+01  0.3157E+02
  19.290  0.1240E+01  0.3158E+02
  19.300  0.1252E+01  0.3159E+02
  19.310  0.1263E+01  0.3161E+02
  19.320  0.1273E+01  0.3162E+02
  19.330  0.1283E+01  0.3163E+02
  19.340  0.1292E+01  0.3164E+02
  19.350  0.1300E+01  0.3166E+02
  19.360  0.1308E+01  0.3167E+02
  19.370  0.1317E+01  0.3168E+02
  19.380  0.1327E+01  0.3170E+02
  19.390  0.1337E+01  0.3171E+02
  19.400  0.1348E+01  0.3172E+02
  19.410  0.1359E+01  0.3174E+02
  19.420  0.1372E+01  0.3175E+02
  19.430  0.1385E+01  0.3176E+02
  19.440  0.1399E+01  0.3178E+02
  19.450  0.1414E+01  0.3179E+02
  19.460  0.1430E+01  0.3181E+02
  19.470  0.1449E+01  0.3182E+02
  19.480  0.1477E+01  0.3184E+02
  19.490  0.1515E+01  0.3185E+02
  19.500  0.1560E+01  0.3187E+02
  19.510  0.1607E+01  0.3188E+02
  19.520  0.1655E+01  0.3190E+02
  19.530  0.1723E+01  0.3191E+02
  19.540  0.1788E+01  0.3193E+02
  19.550  0.1848E+01  0.3195E+02
  19.560  0.1905E+01  0.3197E+02
  19.570  0.1961E+01  0.3199E+02
  19.580  0.2042E+01  0.3201E+02
  19.590  0.2169E+01  0.3203E+02
  19.600  0.2313E+01  0.3205E+02
  19.610  0.2398E+01  0.3208E+02
  19.620  0.2372E+01  0.3210E+02
  19.630  0.2389E+01  0.3212E+02
  19.640  0.2421E+01  0.3215E+02
  19.650  0.2451E+01  0.3217E+02
  19.660  0.2479E+01  0.3220E+02
  19.670  0.2502E+01  0.3222E+02
  19.680  0.2521E+01  0.3225E+02
  19.690  0.2537E+01  0.3227E+02
  19.700  0.2551E+01  0.3230E+02
  19.710  0.2561E+01  0.3232E+02
  19.720  0.2567E+01  0.3235E+02
  19.730  0.2570E+01  0.3237E+02
  19.740  0.2569E+01  0.3240E+02
  19.750  0.2562E+01  0.3243E+02
  19.760  0.2552E+01  0.3245E+02
  19.770  0.2535E+01  0.3248E+02
  19.780  0.2511E+01  0.3250E+02
  19.790  0.2479E+01  0.3253E+02
  19.800  0.2440E+01  0.3255E+02
  19.810  0.2393E+01  0.3258E+02
  19.820  0.2340E+01  0.3260E+02
  19.830  0.2279E+01  0.3262E+02
  19.840  0.2208E+01  0.3264E+02
  19.850  0.2135E+01  0.3267E+02
  19.860  0.2061E+01  0.3269E+02
  19.870  0.2004E+01  0.3271E+02
  19.880  0.1950E+01  0.3273E+02
  19.890  0.1901E+01  0.3275E+02
  19.900  0.1855E+01  0.3277E+02
  19.910  0.1814E+01  0.3278E+02
  19.920  0.1776E+01  0.3280E+02
  19.930  0.1741E+01  0.3282E+02
  19.940  0.1708E+01  0.3284E+02
  19.950  0.1676E+01  0.3285E+02
  19.960  0.1645E+01  0.3287E+02
  19.970  0.1616E+01  0.3289E+02
  19.980  0.1588E+01  0.3290E+02
  19.990  0.1563E+01  0.3292E+02
  20.000  0.1539E+01  0.3293E+02
  20.010  0.1517E+01  0.3295E+02
  20.020  0.1497E+01  0.3296E+02
  20.030  0.1478E+01  0.3298E+02
  20.040  0.1460E+01  0.3299E+02
  20.050  0.1442E+01  0.3301E+02
  20.060  0.1426E+01  0.3302E+02
  20.070  0.1412E+01  0.3304E+02
  20.080  0.1400E+01  0.3305E+02
  20.090  0.1388E+01  0.3306E+02
  20.100  0.1377E+01  0.3308E+02
  20.110  0.1367E+01  0.3309E+02
  20.120  0.1357E+01  0.3311E+02
  20.130  0.1347E+01  0.3312E+02
  20.140  0.1338E+01  0.3313E+02
  20.150  0.1330E+01  0.3315E+02
  20.160  0.1322E+01  0.3316E+02
  20.170  0.1314E+01  0.3317E+02
  20.180  0.1307E+01  0.3319E+02
  20.190  0.1300E+01  0.3320E+02
  20.200  0.1294E+01  0.3321E+02
  20.210  0.1286E+01  0.3322E+02
  20.220  0.1278E+01  0.3324E+02
  20.230  0.1269E+01  0.3325E+02
  20.240  0.1261E+01  0.3326E+02
  20.250  0.1251E+01  0.3328E+02
  20.260  0.1242E+01  0.3329E+02
  20.270  0.1234E+01  0.3330E+02
  20.280  0.1271E+01  0.3331E+02
  20.290  0.1319E+01  0.3333E+02
  20.300  0.1295E+01  0.3334E+02
  20.310  0.1284E+01  0.3335E+02
  20.320  0.1275E+01  0.3336E+02
  20.330  0.1267E+01  0.3338E+02
  20.340  0.1257E+01  0.3339E+02
  20.350  0.1248E+01  0.3340E+02
  20.360  0.1237E+01  0.3341E+02
  20.370  0.1227E+01  0.3343E+02
  20.380  0.1216E+01  0.3344E+02
  20.390  0.1204E+01  0.3345E+02
  20.400  0.1196E+01  0.3346E+02
  20.410  0.1193E+01  0.3348E+02
  20.420  0.1191E+01  0.3349E+02
  20.430  0.1189E+01  0.3350E+02
  20.440  0.1187E+01  0.3351E+02
  20.450  0.1186E+01  0.3352E+02
  20.460  0.1184E+01  0.3353E+02
  20.470  0.1182E+01  0.3355E+02
  20.480  0.1179E+01  0.3356E+02
  20.490  0.1176E+01  0.3357E+02
  20.500  0.1173E+01  0.3358E+02
  20.510  0.1142E+01  0.3359E+02
  20.520  0.1140E+01  0.3360E+02
  20.530  0.1139E+01  0.3362E+02
  20.540  0.1140E+01  0.3363E+02
  20.550  0.1141E+01  0.3364E+02
  20.560  0.1143E+01  0.3365E+02
  20.570  0.1144E+01  0.3366E+02
  20.580  0.1146E+01  0.3367E+02
  20.590  0.1148E+01  0.3368E+02
  20.600  0.1151E+01  0.3370E+02
  20.610  0.1154E+01  0.3371E+02
  20.620  0.1158E+01  0.3372E+02
  20.630  0.1162E+01  0.3373E+02
  20.640  0.1167E+01  0.3374E+02
  20.650  0.1171E+01  0.3375E+02
  20.660  0.1175E+01  0.3377E+02
  20.670  0.1180E+01  0.3378E+02
  20.680  0.1185E+01  0.3379E+02
  20.690  0.1190E+01  0.3380E+02
  20.700  0.1195E+01  0.3381E+02
  20.710  0.1200E+01  0.3383E+02
  20.720  0.1205E+01  0.3384E+02
  20.730  0.1210E+01  0.3385E+02
  20.740  0.1215E+01  0.3386E+02
  20.750  0.1220E+01  0.3387E+02
  20.760  0.1226E+01  0.3389E+02
  20.770  0.1231E+01  0.3390E+02
  20.780  0.1237E+01  0.3391E+02
  20.790  0.1245E+01  0.3392E+02
  20.800  0.1253E+01  0.3394E+02
  20.810  0.1262E+01  0.3395E+02
  20.820  0.1271E+01  0.3396E+02
  20.830  0.1281E+01  0.3397E+02
  20.840  0.1291E+01  0.3399E+02
  20.850  0.1302E+01  0.3400E+02
  20.860  0.1313E+01  0.3401E+02
  20.870  0.1325E+01  0.3403E+02
  20.880  0.1337E+01  0.3404E+02
  20.890  0.1350E+01  0.3405E+02
  20.900  0.1362E+01  0.3407E+02
  20.910  0.1373E+01  0.3408E+02
  20.920  0.1384E+01  0.3409E+02
  20.930  0.1393E+01  0.3411E+02
  20.940  0.1401E+01  0.3412E+02
  20.950  0.1410E+01  0.3414E+02
  20.960  0.1421E+01  0.3415E+02
  20.970  0.1435E+01  0.3416E+02
  20.980  0.1450E+01  0.3418E+02
  20.990  0.1467E+01  0.3419E+02
  21.000  0.1485E+01  0.3421E+02
  21.010  0.1504E+01  0.3422E+02
  21.020  0.1523E+01  0.3424E+02
  21.030  0.1540E+01  0.3425E+02
  21.040  0.1555E+01  0.3427E+02
  21.050  0.1569E+01  0.3428E+02
  21.060  0.1578E+01  0.3430E+02
  21.070  0.1583E+01  0.3432E+02
  21.080  0.1582E+01  0.3433E+02
  21.090  0.1577E+01  0.3435E+02
  21.100  0.1575E+01  0.3436E+02
  21.110  0.1572E+01  0.3438E+02
  21.120  0.1566E+01  0.3439E+02
  21.130  0.1558E+01  0.3441E+02
  21.140  0.1552E+01  0.3443E+02
  21.150  0.1549E+01  0.3444E+02
  21.160  0.1546E+01  0.3446E+02
  21.170  0.1543E+01  0.3447E+02
  21.180  0.1541E+01  0.3449E+02
  21.190  0.1538E+01  0.3450E+02
  21.200  0.1536E+01  0.3452E+02
  21.210  0.1534E+01  0.3453E+02
  21.220  0.1532E+01  0.3455E+02
  21.230  0.1530E+01  0.3456E+02
  21.240  0.1531E+01  0.3458E+02
  21.250  0.1532E+01  0.3459E+02
  21.260  0.1532E+01  0.3461E+02
  21.270  0.1532E+01  0.3463E+02
  21.280  0.1532E+01  0.3464E+02
  21.290  0.1532E+01  0.3466E+02
  21.300  0.1533E+01  0.3467E+02
  21.310  0.1540E+01  0.3469E+02
  21.320  0.1548E+01  0.3470E+02
  21.330  0.1556E+01  0.3472E+02
  21.340  0.1566E+01  0.3473E+02
  21.350  0.1576E+01  0.3475E+02
  21.360  0.1587E+01  0.3476E+02
  21.370  0.1599E+01  0.3478E+02
  21.380  0.1612E+01  0.3480E+02
  21.390  0.1626E+01  0.3481E+02
  21.400  0.1641E+01  0.3483E+02
  21.410  0.1654E+01  0.3485E+02
  21.420  0.1652E+01  0.3486E+02
  21.430  0.1680E+01  0.3488E+02
  21.440  0.1679E+01  0.3490E+02
  21.450  0.1665E+01  0.3491E+02
  21.460  0.1637E+01  0.3493E+02
  21.470  0.1605E+01  0.3495E+02
  21.480  0.1617E+01  0.3496E+02
  21.490  0.1617E+01  0.3498E+02
  21.500  0.1604E+01  0.3499E+02
  21.510  0.1577E+01  0.3501E+02
  21.520  0.1538E+01  0.3503E+02
  21.530  0.1485E+01  0.3504E+02
  21.540  0.1448E+01  0.3505E+02
  21.550  0.1426E+01  0.3507E+02
  21.560  0.1404E+01  0.3508E+02
  21.570  0.1381E+01  0.3510E+02
  21.580  0.1359E+01  0.3511E+02
  21.590  0.1335E+01  0.3512E+02
  21.600  0.1311E+01  0.3514E+02
  21.610  0.1287E+01  0.3515E+02
  21.620  0.1263E+01  0.3516E+02
  21.630  0.1240E+01  0.3518E+02
  21.640  0.1219E+01  0.3519E+02
  21.650  0.1199E+01  0.3520E+02
  21.660  0.1182E+01  0.3521E+02
  21.670  0.1167E+01  0.3522E+02
  21.680  0.1192E+01  0.3524E+02
  21.690  0.1170E+01  0.3525E+02
  21.700  0.1093E+01  0.3526E+02
  21.710  0.1078E+01  0.3527E+02
  21.720  0.1064E+01  0.3528E+02
  21.730  0.1049E+01  0.3529E+02
  21.740  0.1036E+01  0.3530E+02
  21.750  0.1023E+01  0.3531E+02
  21.760  0.1011E+01  0.3532E+02
  21.770  0.9987E+00  0.3533E+02
  21.780  0.9873E+00  0.3534E+02
  21.790  0.9765E+00  0.3535E+02
  21.800  0.9667E+00  0.3536E+02
  21.810  0.9576E+00  0.3537E+02
  21.820  0.9490E+00  0.3538E+02
  21.830  0.9409E+00  0.3539E+02
  21.840  0.9334E+00  0.3540E+02
  21.850  0.9263E+00  0.3541E+02
  21.860  0.9198E+00  0.3542E+02
  21.870  0.9137E+00  0.3543E+02
  21.880  0.9081E+00  0.3544E+02
  21.890  0.9030E+00  0.3545E+02
  21.900  0.8983E+00  0.3545E+02
  21.910  0.8931E+00  0.3546E+02
  21.920  0.8876E+00  0.3547E+02
  21.930  0.8826E+00  0.3548E+02
  21.940  0.8781E+00  0.3549E+02
  21.950  0.8740E+00  0.3550E+02
  21.960  0.8704E+00  0.3551E+02
  21.970  0.8672E+00  0.3552E+02
  21.980  0.8643E+00  0.3552E+02
  21.990  0.8616E+00  0.3553E+02
  22.000  0.8592E+00  0.3554E+02
  22.010  0.8570E+00  0.3555E+02
  22.020  0.8549E+00  0.3556E+02
  22.030  0.8531E+00  0.3557E+02
  22.040  0.8517E+00  0.3558E+02
  22.050  0.8508E+00  0.3558E+02
  22.060  0.8503E+00  0.3559E+02
  22.070  0.8498E+00  0.3560E+02
  22.080  0.8485E+00  0.3561E+02
  22.090  0.8485E+00  0.3562E+02
  22.100  0.8491E+00  0.3563E+02
  22.110  0.8639E+00  0.3564E+02
  22.120  0.8761E+00  0.3564E+02
  22.130  0.8791E+00  0.3565E+02
  22.140  0.8732E+00  0.3566E+02
  22.150  0.8650E+00  0.3567E+02
  22.160  0.8674E+00  0.3568E+02
  22.170  0.8701E+00  0.3569E+02
  22.180  0.8732E+00  0.3570E+02
  22.190  0.8766E+00  0.3571E+02
  22.200  0.8804E+00  0.3571E+02
  22.210  0.8845E+00  0.3572E+02
  22.220  0.8890E+00  0.3573E+02
  22.230  0.8938E+00  0.3574E+02
  22.240  0.8990E+00  0.3575E+02
  22.250  0.9046E+00  0.3576E+02
  22.260  0.9105E+00  0.3577E+02
  22.270  0.9168E+00  0.3578E+02
  22.280  0.9260E+00  0.3579E+02
  22.290  0.9363E+00  0.3580E+02
  22.300  0.9480E+00  0.3580E+02
  22.310  0.9612E+00  0.3581E+02
  22.320  0.9757E+00  0.3582E+02
  22.330  0.9916E+00  0.3583E+02
  22.340  0.1009E+01  0.3584E+02
  22.350  0.1029E+01  0.3585E+02
  22.360  0.1049E+01  0.3586E+02
  22.370  0.1069E+01  0.3587E+02
  22.380  0.1089E+01  0.3589E+02
  22.390  0.1108E+01  0.3590E+02
  22.400  0.1128E+01  0.3591E+02
  22.410  0.1147E+01  0.3592E+02
  22.420  0.1166E+01  0.3593E+02
  22.430  0.1186E+01  0.3594E+02
  22.440  0.1208E+01  0.3595E+02
  22.450  0.1234E+01  0.3597E+02
  22.460  0.1267E+01  0.3598E+02
  22.470  0.1302E+01  0.3599E+02
  22.480  0.1338E+01  0.3601E+02
  22.490  0.1374E+01  0.3602E+02
  22.500  0.1411E+01  0.3603E+02
  22.510  0.1450E+01  0.3605E+02
  22.520  0.1489E+01  0.3606E+02
  22.530  0.1526E+01  0.3608E+02
  22.540  0.1560E+01  0.3609E+02
  22.550  0.1591E+01  0.3611E+02
  22.560  0.1621E+01  0.3612E+02
  22.570  0.1648E+01  0.3614E+02
  22.580  0.1672E+01  0.3616E+02
  22.590  0.1695E+01  0.3617E+02
  22.600  0.1717E+01  0.3619E+02
  22.610  0.1736E+01  0.3621E+02
  22.620  0.1756E+01  0.3623E+02
  22.630  0.1775E+01  0.3624E+02
  22.640  0.1792E+01  0.3626E+02
  22.650  0.1808E+01  0.3628E+02
  22.660  0.1822E+01  0.3630E+02
  22.670  0.1835E+01  0.3632E+02
  22.680  0.1794E+01  0.3633E+02
  22.690  0.1792E+01  0.3635E+02
  22.700  0.1781E+01  0.3637E+02
  22.710  0.1763E+01  0.3639E+02
  22.720  0.1737E+01  0.3641E+02
  22.730  0.1704E+01  0.3642E+02
  22.740  0.1682E+01  0.3644E+02
  22.750  0.1665E+01  0.3646E+02
  22.760  0.1650E+01  0.3647E+02
  22.770  0.1637E+01  0.3649E+02
  22.780  0.1627E+01  0.3651E+02
  22.790  0.1618E+01  0.3652E+02
  22.800  0.1609E+01  0.3654E+02
  22.810  0.1601E+01  0.3655E+02
  22.820  0.1592E+01  0.3657E+02
  22.830  0.1584E+01  0.3659E+02
  22.840  0.1576E+01  0.3660E+02
  22.850  0.1569E+01  0.3662E+02
  22.860  0.1562E+01  0.3663E+02
  22.870  0.1555E+01  0.3665E+02
  22.880  0.1549E+01  0.3666E+02
  22.890  0.1545E+01  0.3668E+02
  22.900  0.1544E+01  0.3670E+02
  22.910  0.1547E+01  0.3671E+02
  22.920  0.1550E+01  0.3673E+02
  22.930  0.1552E+01  0.3674E+02
  22.940  0.1560E+01  0.3676E+02
  22.950  0.1576E+01  0.3677E+02
  22.960  0.1594E+01  0.3679E+02
  22.970  0.1612E+01  0.3680E+02
  22.980  0.1627E+01  0.3682E+02
  22.990  0.1642E+01  0.3684E+02
  23.000  0.1654E+01  0.3685E+02
  23.010  0.1665E+01  0.3687E+02
  23.020  0.1686E+01  0.3689E+02
  23.030  0.1700E+01  0.3690E+02
  23.040  0.1709E+01  0.3692E+02
  23.050  0.1715E+01  0.3694E+02
  23.060  0.1717E+01  0.3696E+02
  23.070  0.1712E+01  0.3697E+02
  23.080  0.1703E+01  0.3699E+02
  23.090  0.1697E+01  0.3701E+02
  23.100  0.1690E+01  0.3702E+02
  23.110  0.1682E+01  0.3704E+02
  23.120  0.1673E+01  0.3706E+02
  23.130  0.1663E+01  0.3707E+02
  23.140  0.1653E+01  0.3709E+02
  23.150  0.1665E+01  0.3711E+02
  23.160  0.1721E+01  0.3712E+02
  23.170  0.1671E+01  0.3714E+02
  23.180  0.1665E+01  0.3716E+02
  23.190  0.1657E+01  0.3717E+02
  23.200  0.1648E+01  0.3719E+02
  23.210  0.1636E+01  0.3721E+02
  23.220  0.1621E+01  0.3722E+02
  23.230  0.1606E+01  0.3724E+02
  23.240  0.1593E+01  0.3726E+02
  23.250  0.1586E+01  0.3727E+02
  23.260  0.1583E+01  0.3729E+02
  23.270  0.1582E+01  0.3730E+02
  23.280  0.1582E+01  0.3732E+02
  23.290  0.1582E+01  0.3733E+02
  23.300  0.1573E+01  0.3735E+02
  23.310  0.1551E+01  0.3737E+02
  23.320  0.1537E+01  0.3738E+02
  23.330  0.1522E+01  0.3740E+02
  23.340  0.1508E+01  0.3741E+02
  23.350  0.1494E+01  0.3743E+02
  23.360  0.1480E+01  0.3744E+02
  23.370  0.1465E+01  0.3746E+02
  23.380  0.1452E+01  0.3747E+02
  23.390  0.1440E+01  0.3749E+02
  23.400  0.1429E+01  0.3750E+02
  23.410  0.1420E+01  0.3751E+02
  23.420  0.1414E+01  0.3753E+02
  23.430  0.1411E+01  0.3754E+02
  23.440  0.1410E+01  0.3756E+02
  23.450  0.1410E+01  0.3757E+02
  23.460  0.1412E+01  0.3758E+02
  23.470  0.1410E+01  0.3760E+02
  23.480  0.1410E+01  0.3761E+02
  23.490  0.1411E+01  0.3763E+02
  23.500  0.1413E+01  0.3764E+02
  23.510  0.1415E+01  0.3766E+02
  23.520  0.1417E+01  0.3767E+02
  23.530  0.1421E+01  0.3768E+02
  23.540  0.1426E+01  0.3770E+02
  23.550  0.1431E+01  0.3771E+02
  23.560  0.1436E+01  0.3773E+02
  23.570  0.1443E+01  0.3774E+02
  23.580  0.1449E+01  0.3776E+02
  23.590  0.1456E+01  0.3777E+02
  23.600  0.1464E+01  0.3778E+02
  23.610  0.1472E+01  0.3780E+02
  23.620  0.1480E+01  0.3781E+02
  23.630  0.1488E+01  0.3783E+02
  23.640  0.1497E+01  0.3784E+02
  23.650  0.1506E+01  0.3786E+02
  23.660  0.1516E+01  0.3787E+02
  23.670  0.1525E+01  0.3789E+02
  23.680  0.1535E+01  0.3790E+02
  23.690  0.1545E+01  0.3792E+02
  23.700  0.1554E+01  0.3794E+02
  23.710  0.1563E+01  0.3795E+02
  23.720  0.1573E+01  0.3797E+02
  23.730  0.1582E+01  0.3798E+02
  23.740  0.1591E+01  0.3800E+02
  23.750  0.1599E+01  0.3801E+02
  23.760  0.1608E+01  0.3803E+02
  23.770  0.1617E+01  0.3805E+02
  23.780  0.1630E+01  0.3806E+02
  23.790  0.1642E+01  0.3808E+02
  23.800  0.1654E+01  0.3810E+02
  23.810  0.1664E+01  0.3811E+02
  23.820  0.1674E+01  0.3813E+02
  23.830  0.1683E+01  0.3815E+02
  23.840  0.1691E+01  0.3816E+02
  23.850  0.1699E+01  0.3818E+02
  23.860  0.1705E+01  0.3820E+02
  23.870  0.1711E+01  0.3821E+02
  23.880  0.1715E+01  0.3823E+02
  23.890  0.1715E+01  0.3825E+02
  23.900  0.1713E+01  0.3826E+02
  23.910  0.1711E+01  0.3828E+02
  23.920  0.1710E+01  0.3830E+02
  23.930  0.1711E+01  0.3832E+02
  23.940  0.1707E+01  0.3833E+02
  23.950  0.1688E+01  0.3835E+02
  23.960  0.1654E+01  0.3837E+02
  23.970  0.1611E+01  0.3838E+02
  23.980  0.1578E+01  0.3840E+02
  23.990  0.1554E+01  0.3841E+02
  24.000  0.1531E+01  0.3843E+02
  24.010  0.1510E+01  0.3845E+02
  24.020  0.1490E+01  0.3846E+02
  24.030  0.1469E+01  0.3848E+02
  24.040  0.1449E+01  0.3849E+02
  24.050  0.1429E+01  0.3850E+02
  24.060  0.1409E+01  0.3852E+02
  24.070  0.1389E+01  0.3853E+02
  24.080  0.1374E+01  0.3855E+02
  24.090  0.1360E+01  0.3856E+02
  24.100  0.1342E+01  0.3857E+02
  24.110  0.1320E+01  0.3859E+02
  24.120  0.1305E+01  0.3860E+02
  24.130  0.1297E+01  0.3861E+02
  24.140  0.1289E+01  0.3863E+02
  24.150  0.1281E+01  0.3864E+02
  24.160  0.1274E+01  0.3865E+02
  24.170  0.1267E+01  0.3866E+02
  24.180  0.1261E+01  0.3868E+02
  24.190  0.1255E+01  0.3869E+02
  24.200  0.1249E+01  0.3870E+02
  24.210  0.1242E+01  0.3871E+02
  24.220  0.1236E+01  0.3873E+02
  24.230  0.1231E+01  0.3874E+02
  24.240  0.1228E+01  0.3875E+02
  24.250  0.1226E+01  0.3876E+02
  24.260  0.1231E+01  0.3878E+02
  24.270  0.1237E+01  0.3879E+02
  24.280  0.1246E+01  0.3880E+02
  24.290  0.1257E+01  0.3881E+02
  24.300  0.1272E+01  0.3883E+02
  24.310  0.1289E+01  0.3884E+02
  24.320  0.1310E+01  0.3885E+02
  24.330  0.1333E+01  0.3886E+02
  24.340  0.1357E+01  0.3888E+02
  24.350  0.1373E+01  0.3889E+02
  24.360  0.1389E+01  0.3891E+02
  24.370  0.1409E+01  0.3892E+02
  24.380  0.1429E+01  0.3893E+02
  24.390  0.1447E+01  0.3895E+02
  24.400  0.1466E+01  0.3896E+02
  24.410  0.1484E+01  0.3898E+02
  24.420  0.1501E+01  0.3899E+02
  24.430  0.1517E+01  0.3901E+02
  24.440  0.1536E+01  0.3902E+02
  24.450  0.1556E+01  0.3904E+02
  24.460  0.1577E+01  0.3905E+02
  24.470  0.1599E+01  0.3907E+02
  24.480  0.1621E+01  0.3909E+02
  24.490  0.1644E+01  0.3910E+02
  24.500  0.1668E+01  0.3912E+02
  24.510  0.1691E+01  0.3914E+02
  24.520  0.1716E+01  0.3915E+02
  24.530  0.1741E+01  0.3917E+02
  24.540  0.1772E+01  0.3919E+02
  24.550  0.1806E+01  0.3921E+02
  24.560  0.1841E+01  0.3922E+02
  24.570  0.1876E+01  0.3924E+02
  24.580  0.1911E+01  0.3926E+02
  24.590  0.1947E+01  0.3928E+02
  24.600  0.1983E+01  0.3930E+02
  24.610  0.2020E+01  0.3932E+02
  24.620  0.2059E+01  0.3934E+02
  24.630  0.2103E+01  0.3936E+02
  24.640  0.2152E+01  0.3938E+02
  24.650  0.2205E+01  0.3940E+02
  24.660  0.2259E+01  0.3943E+02
  24.670  0.2336E+01  0.3945E+02
  24.680  0.2421E+01  0.3947E+02
  24.690  0.2503E+01  0.3950E+02
  24.700  0.2583E+01  0.3952E+02
  24.710  0.2660E+01  0.3955E+02
  24.720  0.2728E+01  0.3958E+02
  24.730  0.2791E+01  0.3960E+02
  24.740  0.2864E+01  0.3963E+02
  24.750  0.2880E+01  0.3966E+02
  24.760  0.2877E+01  0.3969E+02
  24.770  0.2826E+01  0.3972E+02
  24.780  0.2714E+01  0.3975E+02
  24.790  0.2600E+01  0.3977E+02
  24.800  0.2482E+01  0.3980E+02
  24.810  0.2361E+01  0.3982E+02
  24.820  0.2237E+01  0.3985E+02
  24.830  0.2125E+01  0.3987E+02
  24.840  0.2076E+01  0.3989E+02
  24.850  0.2029E+01  0.3991E+02
  24.860  0.1986E+01  0.3993E+02
  24.870  0.1947E+01  0.3995E+02
  24.880  0.1909E+01  0.3997E+02
  24.890  0.1871E+01  0.3999E+02
  24.900  0.1833E+01  0.4001E+02
  24.910  0.1795E+01  0.4002E+02
  24.920  0.1757E+01  0.4004E+02
  24.930  0.1720E+01  0.4006E+02
  24.940  0.1682E+01  0.4008E+02
  24.950  0.1645E+01  0.4009E+02
  24.960  0.1607E+01  0.4011E+02
  24.970  0.1570E+01  0.4012E+02
  24.980  0.1533E+01  0.4014E+02
  24.990  0.1496E+01  0.4016E+02
  25.000  0.1452E+01  0.4017E+02
