#  E (eV)   dosup(E)     dosdw(E)   Int dos(E) EFermi =   12.043  12.043 eV
   5.000  0.1428E+00  0.1428E+00  0.1343E+02
   5.010  0.1421E+00  0.1421E+00  0.1343E+02
   5.020  0.1413E+00  0.1413E+00  0.1343E+02
   5.030  0.1406E+00  0.1406E+00  0.1343E+02
   5.040  0.1399E+00  0.1399E+00  0.1344E+02
   5.050  0.1391E+00  0.1391E+00  0.1344E+02
   5.060  0.1384E+00  0.1384E+00  0.1344E+02
   5.070  0.1377E+00  0.1377E+00  0.1345E+02
   5.080  0.1370E+00  0.1370E+00  0.1345E+02
   5.090  0.1363E+00  0.1363E+00  0.1345E+02
   5.100  0.1356E+00  0.1356E+00  0.1345E+02
   5.110  0.1349E+00  0.1349E+00  0.1346E+02
   5.120  0.1342E+00  0.1342E+00  0.1346E+02
   5.130  0.1335E+00  0.1335E+00  0.1346E+02
   5.140  0.1329E+00  0.1328E+00  0.1346E+02
   5.150  0.1322E+00  0.1322E+00  0.1347E+02
   5.160  0.1315E+00  0.1315E+00  0.1347E+02
   5.170  0.1308E+00  0.1308E+00  0.1347E+02
   5.180  0.1302E+00  0.1302E+00  0.1347E+02
   5.190  0.1295E+00  0.1295E+00  0.1348E+02
   5.200  0.1288E+00  0.1288E+00  0.1348E+02
   5.210  0.1282E+00  0.1282E+00  0.1348E+02
   5.220  0.1275E+00  0.1275E+00  0.1349E+02
   5.230  0.1269E+00  0.1269E+00  0.1349E+02
   5.240  0.1262E+00  0.1262E+00  0.1349E+02
   5.250  0.1256E+00  0.1256E+00  0.1349E+02
   5.260  0.1250E+00  0.1250E+00  0.1350E+02
   5.270  0.1243E+00  0.1243E+00  0.1350E+02
   5.280  0.1237E+00  0.1237E+00  0.1350E+02
   5.290  0.1231E+00  0.1231E+00  0.1350E+02
   5.300  0.1225E+00  0.1225E+00  0.1351E+02
   5.310  0.1219E+00  0.1219E+00  0.1351E+02
   5.320  0.1212E+00  0.1212E+00  0.1351E+02
   5.330  0.1206E+00  0.1206E+00  0.1351E+02
   5.340  0.1200E+00  0.1200E+00  0.1351E+02
   5.350  0.1194E+00  0.1194E+00  0.1352E+02
   5.360  0.1188E+00  0.1188E+00  0.1352E+02
   5.370  0.1183E+00  0.1183E+00  0.1352E+02
   5.380  0.1178E+00  0.1178E+00  0.1352E+02
   5.390  0.1173E+00  0.1173E+00  0.1353E+02
   5.400  0.1168E+00  0.1168E+00  0.1353E+02
   5.410  0.1163E+00  0.1163E+00  0.1353E+02
   5.420  0.1159E+00  0.1159E+00  0.1353E+02
   5.430  0.1155E+00  0.1155E+00  0.1354E+02
   5.440  0.1150E+00  0.1150E+00  0.1354E+02
   5.450  0.1146E+00  0.1146E+00  0.1354E+02
   5.460  0.1142E+00  0.1142E+00  0.1354E+02
   5.470  0.1140E+00  0.1140E+00  0.1355E+02
   5.480  0.1140E+00  0.1140E+00  0.1355E+02
   5.490  0.1143E+00  0.1143E+00  0.1355E+02
   5.500  0.1148E+00  0.1148E+00  0.1355E+02
   5.510  0.1155E+00  0.1155E+00  0.1355E+02
   5.520  0.1164E+00  0.1164E+00  0.1356E+02
   5.530  0.1175E+00  0.1175E+00  0.1356E+02
   5.540  0.1188E+00  0.1188E+00  0.1356E+02
   5.550  0.1203E+00  0.1203E+00  0.1356E+02
   5.560  0.1220E+00  0.1220E+00  0.1357E+02
   5.570  0.1239E+00  0.1239E+00  0.1357E+02
   5.580  0.1260E+00  0.1260E+00  0.1357E+02
   5.590  0.1283E+00  0.1283E+00  0.1357E+02
   5.600  0.1308E+00  0.1308E+00  0.1358E+02
   5.610  0.1335E+00  0.1335E+00  0.1358E+02
   5.620  0.1364E+00  0.1364E+00  0.1358E+02
   5.630  0.1395E+00  0.1395E+00  0.1358E+02
   5.640  0.1428E+00  0.1428E+00  0.1359E+02
   5.650  0.1474E+00  0.1474E+00  0.1359E+02
   5.660  0.1568E+00  0.1568E+00  0.1359E+02
   5.670  0.1669E+00  0.1669E+00  0.1360E+02
   5.680  0.1777E+00  0.1777E+00  0.1360E+02
   5.690  0.1893E+00  0.1893E+00  0.1360E+02
   5.700  0.2016E+00  0.2016E+00  0.1361E+02
   5.710  0.2146E+00  0.2146E+00  0.1361E+02
   5.720  0.2283E+00  0.2283E+00  0.1362E+02
   5.730  0.2428E+00  0.2428E+00  0.1362E+02
   5.740  0.2606E+00  0.2606E+00  0.1363E+02
   5.750  0.2736E+00  0.2736E+00  0.1363E+02
   5.760  0.2890E+00  0.2890E+00  0.1364E+02
   5.770  0.3020E+00  0.3020E+00  0.1364E+02
   5.780  0.3144E+00  0.3144E+00  0.1365E+02
   5.790  0.3262E+00  0.3262E+00  0.1366E+02
   5.800  0.3374E+00  0.3374E+00  0.1366E+02
   5.810  0.3479E+00  0.3480E+00  0.1367E+02
   5.820  0.3579E+00  0.3579E+00  0.1368E+02
   5.830  0.3673E+00  0.3673E+00  0.1368E+02
   5.840  0.3761E+00  0.3761E+00  0.1369E+02
   5.850  0.3843E+00  0.3843E+00  0.1370E+02
   5.860  0.3919E+00  0.3919E+00  0.1371E+02
   5.870  0.3989E+00  0.3989E+00  0.1371E+02
   5.880  0.4053E+00  0.4053E+00  0.1372E+02
   5.890  0.4104E+00  0.4104E+00  0.1373E+02
   5.900  0.4160E+00  0.4160E+00  0.1374E+02
   5.910  0.4195E+00  0.4195E+00  0.1375E+02
   5.920  0.4219E+00  0.4219E+00  0.1376E+02
   5.930  0.4240E+00  0.4240E+00  0.1376E+02
   5.940  0.4260E+00  0.4260E+00  0.1377E+02
   5.950  0.4277E+00  0.4277E+00  0.1378E+02
   5.960  0.4293E+00  0.4293E+00  0.1379E+02
   5.970  0.4307E+00  0.4307E+00  0.1380E+02
   5.980  0.4318E+00  0.4318E+00  0.1381E+02
   5.990  0.4328E+00  0.4328E+00  0.1382E+02
   6.000  0.4336E+00  0.4336E+00  0.1382E+02
   6.010  0.4342E+00  0.4342E+00  0.1383E+02
   6.020  0.4346E+00  0.4346E+00  0.1384E+02
   6.030  0.4348E+00  0.4348E+00  0.1385E+02
   6.040  0.4347E+00  0.4347E+00  0.1386E+02
   6.050  0.4345E+00  0.4345E+00  0.1387E+02
   6.060  0.4341E+00  0.4341E+00  0.1388E+02
   6.070  0.4335E+00  0.4335E+00  0.1388E+02
   6.080  0.4327E+00  0.4327E+00  0.1389E+02
   6.090  0.4317E+00  0.4317E+00  0.1390E+02
   6.100  0.4305E+00  0.4305E+00  0.1391E+02
   6.110  0.4293E+00  0.4293E+00  0.1392E+02
   6.120  0.4281E+00  0.4281E+00  0.1393E+02
   6.130  0.4270E+00  0.4270E+00  0.1394E+02
   6.140  0.4260E+00  0.4260E+00  0.1394E+02
   6.150  0.4242E+00  0.4242E+00  0.1395E+02
   6.160  0.4226E+00  0.4226E+00  0.1396E+02
   6.170  0.4210E+00  0.4210E+00  0.1397E+02
   6.180  0.4195E+00  0.4195E+00  0.1398E+02
   6.190  0.4181E+00  0.4181E+00  0.1399E+02
   6.200  0.4168E+00  0.4168E+00  0.1400E+02
   6.210  0.4158E+00  0.4158E+00  0.1400E+02
   6.220  0.4150E+00  0.4150E+00  0.1401E+02
   6.230  0.4144E+00  0.4144E+00  0.1402E+02
   6.240  0.4137E+00  0.4137E+00  0.1403E+02
   6.250  0.4126E+00  0.4126E+00  0.1404E+02
   6.260  0.4111E+00  0.4111E+00  0.1404E+02
   6.270  0.4097E+00  0.4097E+00  0.1405E+02
   6.280  0.4084E+00  0.4084E+00  0.1406E+02
   6.290  0.4072E+00  0.4072E+00  0.1407E+02
   6.300  0.4061E+00  0.4061E+00  0.1408E+02
   6.310  0.4051E+00  0.4051E+00  0.1409E+02
   6.320  0.4042E+00  0.4042E+00  0.1409E+02
   6.330  0.4034E+00  0.4034E+00  0.1410E+02
   6.340  0.4027E+00  0.4027E+00  0.1411E+02
   6.350  0.4021E+00  0.4021E+00  0.1412E+02
   6.360  0.4017E+00  0.4017E+00  0.1413E+02
   6.370  0.4124E+00  0.4124E+00  0.1413E+02
   6.380  0.4042E+00  0.4042E+00  0.1414E+02
   6.390  0.3926E+00  0.3926E+00  0.1415E+02
   6.400  0.3834E+00  0.3834E+00  0.1416E+02
   6.410  0.3765E+00  0.3765E+00  0.1417E+02
   6.420  0.3719E+00  0.3719E+00  0.1417E+02
   6.430  0.3696E+00  0.3696E+00  0.1418E+02
   6.440  0.3693E+00  0.3693E+00  0.1419E+02
   6.450  0.3693E+00  0.3693E+00  0.1420E+02
   6.460  0.3693E+00  0.3693E+00  0.1420E+02
   6.470  0.3693E+00  0.3693E+00  0.1421E+02
   6.480  0.3693E+00  0.3693E+00  0.1422E+02
   6.490  0.3694E+00  0.3694E+00  0.1422E+02
   6.500  0.3695E+00  0.3695E+00  0.1423E+02
   6.510  0.3696E+00  0.3696E+00  0.1424E+02
   6.520  0.3697E+00  0.3697E+00  0.1425E+02
   6.530  0.3697E+00  0.3697E+00  0.1425E+02
   6.540  0.3698E+00  0.3698E+00  0.1426E+02
   6.550  0.3699E+00  0.3699E+00  0.1427E+02
   6.560  0.3700E+00  0.3700E+00  0.1428E+02
   6.570  0.3701E+00  0.3701E+00  0.1428E+02
   6.580  0.3702E+00  0.3702E+00  0.1429E+02
   6.590  0.3703E+00  0.3703E+00  0.1430E+02
   6.600  0.3704E+00  0.3704E+00  0.1431E+02
   6.610  0.3705E+00  0.3705E+00  0.1431E+02
   6.620  0.3706E+00  0.3706E+00  0.1432E+02
   6.630  0.3708E+00  0.3708E+00  0.1433E+02
   6.640  0.3712E+00  0.3712E+00  0.1434E+02
   6.650  0.3717E+00  0.3717E+00  0.1434E+02
   6.660  0.3721E+00  0.3721E+00  0.1435E+02
   6.670  0.3726E+00  0.3726E+00  0.1436E+02
   6.680  0.3731E+00  0.3731E+00  0.1437E+02
   6.690  0.3735E+00  0.3735E+00  0.1437E+02
   6.700  0.3741E+00  0.3741E+00  0.1438E+02
   6.710  0.3746E+00  0.3746E+00  0.1439E+02
   6.720  0.3752E+00  0.3752E+00  0.1440E+02
   6.730  0.3760E+00  0.3760E+00  0.1440E+02
   6.740  0.3770E+00  0.3770E+00  0.1441E+02
   6.750  0.3781E+00  0.3781E+00  0.1442E+02
   6.760  0.3795E+00  0.3795E+00  0.1443E+02
   6.770  0.3811E+00  0.3811E+00  0.1443E+02
   6.780  0.3828E+00  0.3828E+00  0.1444E+02
   6.790  0.3848E+00  0.3848E+00  0.1445E+02
   6.800  0.3869E+00  0.3869E+00  0.1446E+02
   6.810  0.3893E+00  0.3893E+00  0.1446E+02
   6.820  0.3909E+00  0.3909E+00  0.1447E+02
   6.830  0.3914E+00  0.3914E+00  0.1448E+02
   6.840  0.3909E+00  0.3909E+00  0.1449E+02
   6.850  0.3893E+00  0.3893E+00  0.1450E+02
   6.860  0.3866E+00  0.3866E+00  0.1450E+02
   6.870  0.3837E+00  0.3837E+00  0.1451E+02
   6.880  0.3840E+00  0.3840E+00  0.1452E+02
   6.890  0.3846E+00  0.3846E+00  0.1453E+02
   6.900  0.3855E+00  0.3855E+00  0.1453E+02
   6.910  0.3864E+00  0.3864E+00  0.1454E+02
   6.920  0.3874E+00  0.3874E+00  0.1455E+02
   6.930  0.3884E+00  0.3884E+00  0.1456E+02
   6.940  0.3895E+00  0.3895E+00  0.1456E+02
   6.950  0.3905E+00  0.3905E+00  0.1457E+02
   6.960  0.3917E+00  0.3917E+00  0.1458E+02
   6.970  0.3928E+00  0.3928E+00  0.1459E+02
   6.980  0.3941E+00  0.3941E+00  0.1460E+02
   6.990  0.3953E+00  0.3953E+00  0.1460E+02
   7.000  0.3966E+00  0.3966E+00  0.1461E+02
   7.010  0.3977E+00  0.3977E+00  0.1462E+02
   7.020  0.3986E+00  0.3986E+00  0.1463E+02
   7.030  0.3995E+00  0.3995E+00  0.1464E+02
   7.040  0.4004E+00  0.4004E+00  0.1464E+02
   7.050  0.4013E+00  0.4013E+00  0.1465E+02
   7.060  0.4024E+00  0.4024E+00  0.1466E+02
   7.070  0.4034E+00  0.4034E+00  0.1467E+02
   7.080  0.4045E+00  0.4045E+00  0.1468E+02
   7.090  0.4056E+00  0.4056E+00  0.1468E+02
   7.100  0.4068E+00  0.4068E+00  0.1469E+02
   7.110  0.4080E+00  0.4080E+00  0.1470E+02
   7.120  0.4092E+00  0.4093E+00  0.1471E+02
   7.130  0.4105E+00  0.4105E+00  0.1472E+02
   7.140  0.4119E+00  0.4119E+00  0.1473E+02
   7.150  0.4302E+00  0.4302E+00  0.1473E+02
   7.160  0.4322E+00  0.4322E+00  0.1474E+02
   7.170  0.4339E+00  0.4339E+00  0.1475E+02
   7.180  0.4353E+00  0.4353E+00  0.1476E+02
   7.190  0.4364E+00  0.4364E+00  0.1477E+02
   7.200  0.4377E+00  0.4377E+00  0.1478E+02
   7.210  0.4390E+00  0.4390E+00  0.1479E+02
   7.220  0.4402E+00  0.4402E+00  0.1480E+02
   7.230  0.4412E+00  0.4412E+00  0.1480E+02
   7.240  0.4417E+00  0.4417E+00  0.1481E+02
   7.250  0.4420E+00  0.4420E+00  0.1482E+02
   7.260  0.4437E+00  0.4437E+00  0.1483E+02
   7.270  0.4454E+00  0.4454E+00  0.1484E+02
   7.280  0.4472E+00  0.4472E+00  0.1485E+02
   7.290  0.4490E+00  0.4490E+00  0.1486E+02
   7.300  0.4508E+00  0.4508E+00  0.1487E+02
   7.310  0.4526E+00  0.4526E+00  0.1488E+02
   7.320  0.4545E+00  0.4545E+00  0.1489E+02
   7.330  0.4565E+00  0.4565E+00  0.1489E+02
   7.340  0.4588E+00  0.4588E+00  0.1490E+02
   7.350  0.4614E+00  0.4614E+00  0.1491E+02
   7.360  0.4640E+00  0.4640E+00  0.1492E+02
   7.370  0.4667E+00  0.4667E+00  0.1493E+02
   7.380  0.4695E+00  0.4695E+00  0.1494E+02
   7.390  0.4724E+00  0.4724E+00  0.1495E+02
   7.400  0.4753E+00  0.4753E+00  0.1496E+02
   7.410  0.4784E+00  0.4784E+00  0.1497E+02
   7.420  0.4813E+00  0.4813E+00  0.1498E+02
   7.430  0.4844E+00  0.4844E+00  0.1499E+02
   7.440  0.4875E+00  0.4875E+00  0.1500E+02
   7.450  0.4908E+00  0.4909E+00  0.1501E+02
   7.460  0.4957E+00  0.4957E+00  0.1502E+02
   7.470  0.5011E+00  0.5011E+00  0.1503E+02
   7.480  0.5071E+00  0.5072E+00  0.1504E+02
   7.490  0.5138E+00  0.5138E+00  0.1505E+02
   7.500  0.5207E+00  0.5207E+00  0.1506E+02
   7.510  0.5263E+00  0.5263E+00  0.1507E+02
   7.520  0.5319E+00  0.5319E+00  0.1508E+02
   7.530  0.5374E+00  0.5374E+00  0.1509E+02
   7.540  0.5428E+00  0.5428E+00  0.1510E+02
   7.550  0.5482E+00  0.5482E+00  0.1511E+02
   7.560  0.5535E+00  0.5535E+00  0.1512E+02
   7.570  0.5591E+00  0.5591E+00  0.1513E+02
   7.580  0.5658E+00  0.5658E+00  0.1515E+02
   7.590  0.5724E+00  0.5724E+00  0.1516E+02
   7.600  0.5780E+00  0.5780E+00  0.1517E+02
   7.610  0.5824E+00  0.5824E+00  0.1518E+02
   7.620  0.5859E+00  0.5859E+00  0.1519E+02
   7.630  0.5882E+00  0.5882E+00  0.1520E+02
   7.640  0.5895E+00  0.5895E+00  0.1521E+02
   7.650  0.5897E+00  0.5897E+00  0.1523E+02
   7.660  0.5888E+00  0.5888E+00  0.1524E+02
   7.670  0.5868E+00  0.5868E+00  0.1525E+02
   7.680  0.5838E+00  0.5838E+00  0.1526E+02
   7.690  0.5756E+00  0.5756E+00  0.1527E+02
   7.700  0.5660E+00  0.5660E+00  0.1528E+02
   7.710  0.5569E+00  0.5569E+00  0.1530E+02
   7.720  0.5494E+00  0.5494E+00  0.1531E+02
   7.730  0.5434E+00  0.5434E+00  0.1532E+02
   7.740  0.5391E+00  0.5391E+00  0.1533E+02
   7.750  0.5356E+00  0.5356E+00  0.1534E+02
   7.760  0.5337E+00  0.5337E+00  0.1535E+02
   7.770  0.5331E+00  0.5331E+00  0.1536E+02
   7.780  0.5326E+00  0.5326E+00  0.1537E+02
   7.790  0.5323E+00  0.5323E+00  0.1538E+02
   7.800  0.5321E+00  0.5321E+00  0.1539E+02
   7.810  0.5319E+00  0.5319E+00  0.1540E+02
   7.820  0.5319E+00  0.5319E+00  0.1541E+02
   7.830  0.5320E+00  0.5320E+00  0.1542E+02
   7.840  0.5322E+00  0.5322E+00  0.1544E+02
   7.850  0.5325E+00  0.5325E+00  0.1545E+02
   7.860  0.5329E+00  0.5329E+00  0.1546E+02
   7.870  0.5334E+00  0.5334E+00  0.1547E+02
   7.880  0.5338E+00  0.5338E+00  0.1548E+02
   7.890  0.5342E+00  0.5342E+00  0.1549E+02
   7.900  0.5345E+00  0.5345E+00  0.1550E+02
   7.910  0.5349E+00  0.5349E+00  0.1551E+02
   7.920  0.5352E+00  0.5352E+00  0.1552E+02
   7.930  0.5355E+00  0.5355E+00  0.1553E+02
   7.940  0.5358E+00  0.5358E+00  0.1554E+02
   7.950  0.5418E+00  0.5418E+00  0.1555E+02
   7.960  0.5575E+00  0.5575E+00  0.1556E+02
   7.970  0.5561E+00  0.5561E+00  0.1558E+02
   7.980  0.5536E+00  0.5536E+00  0.1559E+02
   7.990  0.5512E+00  0.5512E+00  0.1560E+02
   8.000  0.5494E+00  0.5494E+00  0.1561E+02
   8.010  0.5479E+00  0.5479E+00  0.1562E+02
   8.020  0.5472E+00  0.5472E+00  0.1563E+02
   8.030  0.5456E+00  0.5456E+00  0.1564E+02
   8.040  0.5441E+00  0.5441E+00  0.1565E+02
   8.050  0.5426E+00  0.5426E+00  0.1566E+02
   8.060  0.5411E+00  0.5411E+00  0.1567E+02
   8.070  0.5397E+00  0.5397E+00  0.1568E+02
   8.080  0.5383E+00  0.5383E+00  0.1570E+02
   8.090  0.5370E+00  0.5370E+00  0.1571E+02
   8.100  0.5357E+00  0.5357E+00  0.1572E+02
   8.110  0.5344E+00  0.5344E+00  0.1573E+02
   8.120  0.5332E+00  0.5332E+00  0.1574E+02
   8.130  0.5321E+00  0.5321E+00  0.1575E+02
   8.140  0.5309E+00  0.5309E+00  0.1576E+02
   8.150  0.5299E+00  0.5299E+00  0.1577E+02
   8.160  0.5288E+00  0.5288E+00  0.1578E+02
   8.170  0.5278E+00  0.5278E+00  0.1579E+02
   8.180  0.5269E+00  0.5269E+00  0.1580E+02
   8.190  0.5260E+00  0.5260E+00  0.1581E+02
   8.200  0.5251E+00  0.5251E+00  0.1582E+02
   8.210  0.5243E+00  0.5243E+00  0.1583E+02
   8.220  0.5235E+00  0.5235E+00  0.1584E+02
   8.230  0.5216E+00  0.5216E+00  0.1585E+02
   8.240  0.5194E+00  0.5194E+00  0.1586E+02
   8.250  0.5170E+00  0.5170E+00  0.1588E+02
   8.260  0.5149E+00  0.5149E+00  0.1589E+02
   8.270  0.5139E+00  0.5139E+00  0.1590E+02
   8.280  0.5131E+00  0.5131E+00  0.1591E+02
   8.290  0.5125E+00  0.5125E+00  0.1592E+02
   8.300  0.5119E+00  0.5119E+00  0.1593E+02
   8.310  0.5115E+00  0.5115E+00  0.1594E+02
   8.320  0.5111E+00  0.5111E+00  0.1595E+02
   8.330  0.5108E+00  0.5108E+00  0.1596E+02
   8.340  0.5106E+00  0.5106E+00  0.1597E+02
   8.350  0.5105E+00  0.5105E+00  0.1598E+02
   8.360  0.5104E+00  0.5104E+00  0.1599E+02
   8.370  0.5104E+00  0.5104E+00  0.1600E+02
   8.380  0.5105E+00  0.5105E+00  0.1601E+02
   8.390  0.5107E+00  0.5107E+00  0.1602E+02
   8.400  0.5110E+00  0.5110E+00  0.1603E+02
   8.410  0.5114E+00  0.5114E+00  0.1604E+02
   8.420  0.5130E+00  0.5130E+00  0.1605E+02
   8.430  0.5154E+00  0.5154E+00  0.1606E+02
   8.440  0.5149E+00  0.5149E+00  0.1607E+02
   8.450  0.5113E+00  0.5113E+00  0.1608E+02
   8.460  0.5048E+00  0.5048E+00  0.1609E+02
   8.470  0.5017E+00  0.5017E+00  0.1610E+02
   8.480  0.5006E+00  0.5006E+00  0.1611E+02
   8.490  0.4994E+00  0.4994E+00  0.1612E+02
   8.500  0.4983E+00  0.4983E+00  0.1613E+02
   8.510  0.4972E+00  0.4972E+00  0.1614E+02
   8.520  0.4962E+00  0.4962E+00  0.1615E+02
   8.530  0.4952E+00  0.4952E+00  0.1616E+02
   8.540  0.4942E+00  0.4942E+00  0.1617E+02
   8.550  0.4934E+00  0.4934E+00  0.1618E+02
   8.560  0.4926E+00  0.4926E+00  0.1619E+02
   8.570  0.4920E+00  0.4920E+00  0.1620E+02
   8.580  0.4915E+00  0.4915E+00  0.1621E+02
   8.590  0.4911E+00  0.4911E+00  0.1622E+02
   8.600  0.4908E+00  0.4908E+00  0.1623E+02
   8.610  0.4907E+00  0.4907E+00  0.1624E+02
   8.620  0.4907E+00  0.4907E+00  0.1625E+02
   8.630  0.4909E+00  0.4909E+00  0.1626E+02
   8.640  0.4912E+00  0.4912E+00  0.1627E+02
   8.650  0.4916E+00  0.4916E+00  0.1628E+02
   8.660  0.4944E+00  0.4944E+00  0.1629E+02
   8.670  0.4983E+00  0.4983E+00  0.1630E+02
   8.680  0.4990E+00  0.4990E+00  0.1631E+02
   8.690  0.4965E+00  0.4965E+00  0.1632E+02
   8.700  0.4941E+00  0.4941E+00  0.1633E+02
   8.710  0.4922E+00  0.4922E+00  0.1634E+02
   8.720  0.4904E+00  0.4904E+00  0.1635E+02
   8.730  0.4887E+00  0.4887E+00  0.1636E+02
   8.740  0.4872E+00  0.4872E+00  0.1637E+02
   8.750  0.4857E+00  0.4857E+00  0.1638E+02
   8.760  0.4843E+00  0.4843E+00  0.1639E+02
   8.770  0.4832E+00  0.4832E+00  0.1640E+02
   8.780  0.4822E+00  0.4822E+00  0.1641E+02
   8.790  0.4812E+00  0.4812E+00  0.1642E+02
   8.800  0.4804E+00  0.4804E+00  0.1642E+02
   8.810  0.4796E+00  0.4796E+00  0.1643E+02
   8.820  0.4790E+00  0.4790E+00  0.1644E+02
   8.830  0.4783E+00  0.4783E+00  0.1645E+02
   8.840  0.4777E+00  0.4777E+00  0.1646E+02
   8.850  0.4771E+00  0.4771E+00  0.1647E+02
   8.860  0.4765E+00  0.4765E+00  0.1648E+02
   8.870  0.4760E+00  0.4760E+00  0.1649E+02
   8.880  0.4754E+00  0.4754E+00  0.1650E+02
   8.890  0.4749E+00  0.4749E+00  0.1651E+02
   8.900  0.4744E+00  0.4744E+00  0.1652E+02
   8.910  0.4740E+00  0.4740E+00  0.1653E+02
   8.920  0.4734E+00  0.4734E+00  0.1654E+02
   8.930  0.4727E+00  0.4727E+00  0.1655E+02
   8.940  0.4719E+00  0.4719E+00  0.1656E+02
   8.950  0.4711E+00  0.4711E+00  0.1657E+02
   8.960  0.4703E+00  0.4703E+00  0.1658E+02
   8.970  0.4696E+00  0.4696E+00  0.1659E+02
   8.980  0.4689E+00  0.4689E+00  0.1660E+02
   8.990  0.4681E+00  0.4681E+00  0.1661E+02
   9.000  0.4674E+00  0.4674E+00  0.1661E+02
   9.010  0.4667E+00  0.4667E+00  0.1662E+02
   9.020  0.4660E+00  0.4660E+00  0.1663E+02
   9.030  0.4653E+00  0.4653E+00  0.1664E+02
   9.040  0.4645E+00  0.4645E+00  0.1665E+02
   9.050  0.4637E+00  0.4637E+00  0.1666E+02
   9.060  0.4628E+00  0.4628E+00  0.1667E+02
   9.070  0.4620E+00  0.4620E+00  0.1668E+02
   9.080  0.4611E+00  0.4611E+00  0.1669E+02
   9.090  0.4602E+00  0.4602E+00  0.1670E+02
   9.100  0.4592E+00  0.4592E+00  0.1671E+02
   9.110  0.4583E+00  0.4583E+00  0.1672E+02
   9.120  0.4573E+00  0.4573E+00  0.1673E+02
   9.130  0.4564E+00  0.4564E+00  0.1673E+02
   9.140  0.4555E+00  0.4555E+00  0.1674E+02
   9.150  0.4546E+00  0.4546E+00  0.1675E+02
   9.160  0.4537E+00  0.4537E+00  0.1676E+02
   9.170  0.4594E+00  0.4594E+00  0.1677E+02
   9.180  0.4660E+00  0.4660E+00  0.1678E+02
   9.190  0.4711E+00  0.4711E+00  0.1679E+02
   9.200  0.4746E+00  0.4746E+00  0.1680E+02
   9.210  0.4756E+00  0.4756E+00  0.1681E+02
   9.220  0.4758E+00  0.4758E+00  0.1682E+02
   9.230  0.4755E+00  0.4755E+00  0.1683E+02
   9.240  0.4746E+00  0.4746E+00  0.1684E+02
   9.250  0.4731E+00  0.4731E+00  0.1685E+02
   9.260  0.4711E+00  0.4711E+00  0.1686E+02
   9.270  0.4685E+00  0.4685E+00  0.1687E+02
   9.280  0.4655E+00  0.4655E+00  0.1687E+02
   9.290  0.4651E+00  0.4651E+00  0.1688E+02
   9.300  0.4608E+00  0.4608E+00  0.1689E+02
   9.310  0.4580E+00  0.4580E+00  0.1690E+02
   9.320  0.4572E+00  0.4572E+00  0.1691E+02
   9.330  0.4564E+00  0.4564E+00  0.1692E+02
   9.340  0.4557E+00  0.4557E+00  0.1693E+02
   9.350  0.4550E+00  0.4550E+00  0.1694E+02
   9.360  0.4543E+00  0.4543E+00  0.1695E+02
   9.370  0.4536E+00  0.4536E+00  0.1696E+02
   9.380  0.4545E+00  0.4545E+00  0.1697E+02
   9.390  0.4584E+00  0.4584E+00  0.1698E+02
   9.400  0.4616E+00  0.4616E+00  0.1698E+02
   9.410  0.4640E+00  0.4640E+00  0.1699E+02
   9.420  0.4655E+00  0.4655E+00  0.1700E+02
   9.430  0.4661E+00  0.4661E+00  0.1701E+02
   9.440  0.4659E+00  0.4659E+00  0.1702E+02
   9.450  0.4648E+00  0.4648E+00  0.1703E+02
   9.460  0.4630E+00  0.4630E+00  0.1704E+02
   9.470  0.4613E+00  0.4613E+00  0.1705E+02
   9.480  0.4600E+00  0.4600E+00  0.1706E+02
   9.490  0.4606E+00  0.4606E+00  0.1707E+02
   9.500  0.4617E+00  0.4617E+00  0.1708E+02
   9.510  0.4623E+00  0.4623E+00  0.1709E+02
   9.520  0.4624E+00  0.4624E+00  0.1710E+02
   9.530  0.4620E+00  0.4620E+00  0.1711E+02
   9.540  0.4608E+00  0.4608E+00  0.1711E+02
   9.550  0.4590E+00  0.4590E+00  0.1712E+02
   9.560  0.4566E+00  0.4566E+00  0.1713E+02
   9.570  0.4535E+00  0.4535E+00  0.1714E+02
   9.580  0.4498E+00  0.4498E+00  0.1715E+02
   9.590  0.4460E+00  0.4460E+00  0.1716E+02
   9.600  0.4444E+00  0.4444E+00  0.1717E+02
   9.610  0.4427E+00  0.4427E+00  0.1718E+02
   9.620  0.4410E+00  0.4410E+00  0.1719E+02
   9.630  0.4392E+00  0.4392E+00  0.1720E+02
   9.640  0.4374E+00  0.4374E+00  0.1720E+02
   9.650  0.4355E+00  0.4355E+00  0.1721E+02
   9.660  0.4335E+00  0.4335E+00  0.1722E+02
   9.670  0.4318E+00  0.4318E+00  0.1723E+02
   9.680  0.4300E+00  0.4300E+00  0.1724E+02
   9.690  0.4281E+00  0.4281E+00  0.1725E+02
   9.700  0.4263E+00  0.4262E+00  0.1726E+02
   9.710  0.4243E+00  0.4243E+00  0.1726E+02
   9.720  0.4224E+00  0.4224E+00  0.1727E+02
   9.730  0.4204E+00  0.4204E+00  0.1728E+02
   9.740  0.4208E+00  0.4208E+00  0.1729E+02
   9.750  0.4224E+00  0.4224E+00  0.1730E+02
   9.760  0.4247E+00  0.4247E+00  0.1731E+02
   9.770  0.4272E+00  0.4271E+00  0.1732E+02
   9.780  0.4258E+00  0.4258E+00  0.1732E+02
   9.790  0.4243E+00  0.4243E+00  0.1733E+02
   9.800  0.4226E+00  0.4226E+00  0.1734E+02
   9.810  0.4207E+00  0.4207E+00  0.1735E+02
   9.820  0.4185E+00  0.4185E+00  0.1736E+02
   9.830  0.4162E+00  0.4162E+00  0.1737E+02
   9.840  0.4136E+00  0.4136E+00  0.1737E+02
   9.850  0.4108E+00  0.4108E+00  0.1738E+02
   9.860  0.4079E+00  0.4079E+00  0.1739E+02
   9.870  0.4047E+00  0.4047E+00  0.1740E+02
   9.880  0.4014E+00  0.4014E+00  0.1741E+02
   9.890  0.3978E+00  0.3978E+00  0.1741E+02
   9.900  0.3941E+00  0.3941E+00  0.1742E+02
   9.910  0.3901E+00  0.3901E+00  0.1743E+02
   9.920  0.3862E+00  0.3862E+00  0.1744E+02
   9.930  0.3823E+00  0.3823E+00  0.1745E+02
   9.940  0.3782E+00  0.3782E+00  0.1745E+02
   9.950  0.3740E+00  0.3740E+00  0.1746E+02
   9.960  0.3695E+00  0.3695E+00  0.1747E+02
   9.970  0.3648E+00  0.3648E+00  0.1748E+02
   9.980  0.3599E+00  0.3599E+00  0.1748E+02
   9.990  0.3543E+00  0.3543E+00  0.1749E+02
  10.000  0.3486E+00  0.3486E+00  0.1750E+02
  10.010  0.3427E+00  0.3427E+00  0.1750E+02
  10.020  0.3368E+00  0.3368E+00  0.1751E+02
  10.030  0.3307E+00  0.3307E+00  0.1752E+02
  10.040  0.3251E+00  0.3251E+00  0.1752E+02
  10.050  0.3193E+00  0.3193E+00  0.1753E+02
  10.060  0.3137E+00  0.3137E+00  0.1754E+02
  10.070  0.3085E+00  0.3085E+00  0.1754E+02
  10.080  0.3037E+00  0.3037E+00  0.1755E+02
  10.090  0.2994E+00  0.2994E+00  0.1756E+02
  10.100  0.2955E+00  0.2955E+00  0.1756E+02
  10.110  0.2919E+00  0.2919E+00  0.1757E+02
  10.120  0.2885E+00  0.2885E+00  0.1757E+02
  10.130  0.2850E+00  0.2850E+00  0.1758E+02
  10.140  0.2816E+00  0.2816E+00  0.1758E+02
  10.150  0.2782E+00  0.2782E+00  0.1759E+02
  10.160  0.2749E+00  0.2749E+00  0.1760E+02
  10.170  0.2716E+00  0.2716E+00  0.1760E+02
  10.180  0.2683E+00  0.2683E+00  0.1761E+02
  10.190  0.2651E+00  0.2651E+00  0.1761E+02
  10.200  0.2618E+00  0.2618E+00  0.1762E+02
  10.210  0.2587E+00  0.2587E+00  0.1762E+02
  10.220  0.2557E+00  0.2557E+00  0.1763E+02
  10.230  0.2527E+00  0.2527E+00  0.1763E+02
  10.240  0.2497E+00  0.2497E+00  0.1764E+02
  10.250  0.2468E+00  0.2468E+00  0.1764E+02
  10.260  0.2439E+00  0.2439E+00  0.1765E+02
  10.270  0.2411E+00  0.2411E+00  0.1765E+02
  10.280  0.2383E+00  0.2383E+00  0.1766E+02
  10.290  0.2356E+00  0.2356E+00  0.1766E+02
  10.300  0.2329E+00  0.2329E+00  0.1767E+02
  10.310  0.2302E+00  0.2302E+00  0.1767E+02
  10.320  0.2276E+00  0.2276E+00  0.1768E+02
  10.330  0.2251E+00  0.2251E+00  0.1768E+02
  10.340  0.2222E+00  0.2221E+00  0.1768E+02
  10.350  0.2151E+00  0.2151E+00  0.1769E+02
  10.360  0.2131E+00  0.2131E+00  0.1769E+02
  10.370  0.2112E+00  0.2112E+00  0.1770E+02
  10.380  0.2093E+00  0.2093E+00  0.1770E+02
  10.390  0.2075E+00  0.2075E+00  0.1771E+02
  10.400  0.2058E+00  0.2058E+00  0.1771E+02
  10.410  0.2041E+00  0.2041E+00  0.1771E+02
  10.420  0.2030E+00  0.2030E+00  0.1772E+02
  10.430  0.2023E+00  0.2023E+00  0.1772E+02
  10.440  0.2016E+00  0.2016E+00  0.1773E+02
  10.450  0.2009E+00  0.2009E+00  0.1773E+02
  10.460  0.2002E+00  0.2002E+00  0.1773E+02
  10.470  0.1995E+00  0.1995E+00  0.1774E+02
  10.480  0.1988E+00  0.1988E+00  0.1774E+02
  10.490  0.1981E+00  0.1981E+00  0.1775E+02
  10.500  0.1973E+00  0.1973E+00  0.1775E+02
  10.510  0.1966E+00  0.1966E+00  0.1775E+02
  10.520  0.1959E+00  0.1959E+00  0.1776E+02
  10.530  0.1951E+00  0.1951E+00  0.1776E+02
  10.540  0.1944E+00  0.1944E+00  0.1777E+02
  10.550  0.1934E+00  0.1934E+00  0.1777E+02
  10.560  0.1916E+00  0.1916E+00  0.1777E+02
  10.570  0.1898E+00  0.1898E+00  0.1778E+02
  10.580  0.1881E+00  0.1881E+00  0.1778E+02
  10.590  0.1863E+00  0.1863E+00  0.1778E+02
  10.600  0.1894E+00  0.1894E+00  0.1779E+02
  10.610  0.1925E+00  0.1925E+00  0.1779E+02
  10.620  0.1938E+00  0.1938E+00  0.1780E+02
  10.630  0.1933E+00  0.1933E+00  0.1780E+02
  10.640  0.1909E+00  0.1909E+00  0.1780E+02
  10.650  0.1866E+00  0.1866E+00  0.1781E+02
  10.660  0.1806E+00  0.1806E+00  0.1781E+02
  10.670  0.1727E+00  0.1727E+00  0.1781E+02
  10.680  0.1675E+00  0.1675E+00  0.1782E+02
  10.690  0.1659E+00  0.1659E+00  0.1782E+02
  10.700  0.1642E+00  0.1642E+00  0.1782E+02
  10.710  0.1625E+00  0.1625E+00  0.1783E+02
  10.720  0.1608E+00  0.1608E+00  0.1783E+02
  10.730  0.1589E+00  0.1589E+00  0.1783E+02
  10.740  0.1570E+00  0.1570E+00  0.1784E+02
  10.750  0.1549E+00  0.1549E+00  0.1784E+02
  10.760  0.1528E+00  0.1528E+00  0.1784E+02
  10.770  0.1505E+00  0.1505E+00  0.1785E+02
  10.780  0.1482E+00  0.1482E+00  0.1785E+02
  10.790  0.1458E+00  0.1458E+00  0.1785E+02
  10.800  0.1433E+00  0.1433E+00  0.1786E+02
  10.810  0.1407E+00  0.1407E+00  0.1786E+02
  10.820  0.1384E+00  0.1384E+00  0.1786E+02
  10.830  0.1370E+00  0.1370E+00  0.1786E+02
  10.840  0.1362E+00  0.1362E+00  0.1787E+02
  10.850  0.1353E+00  0.1353E+00  0.1787E+02
  10.860  0.1344E+00  0.1344E+00  0.1787E+02
  10.870  0.1334E+00  0.1334E+00  0.1788E+02
  10.880  0.1324E+00  0.1324E+00  0.1788E+02
  10.890  0.1314E+00  0.1314E+00  0.1788E+02
  10.900  0.1304E+00  0.1304E+00  0.1788E+02
  10.910  0.1293E+00  0.1293E+00  0.1789E+02
  10.920  0.1281E+00  0.1281E+00  0.1789E+02
  10.930  0.1270E+00  0.1270E+00  0.1789E+02
  10.940  0.1258E+00  0.1258E+00  0.1789E+02
  10.950  0.1250E+00  0.1250E+00  0.1790E+02
  10.960  0.1245E+00  0.1245E+00  0.1790E+02
  10.970  0.1240E+00  0.1240E+00  0.1790E+02
  10.980  0.1236E+00  0.1236E+00  0.1790E+02
  10.990  0.1231E+00  0.1231E+00  0.1791E+02
  11.000  0.1224E+00  0.1224E+00  0.1791E+02
  11.010  0.1212E+00  0.1212E+00  0.1791E+02
  11.020  0.1200E+00  0.1200E+00  0.1791E+02
  11.030  0.1187E+00  0.1187E+00  0.1792E+02
  11.040  0.1174E+00  0.1174E+00  0.1792E+02
  11.050  0.1160E+00  0.1160E+00  0.1792E+02
  11.060  0.1146E+00  0.1146E+00  0.1792E+02
  11.070  0.1132E+00  0.1132E+00  0.1792E+02
  11.080  0.1117E+00  0.1117E+00  0.1793E+02
  11.090  0.1102E+00  0.1102E+00  0.1793E+02
  11.100  0.1086E+00  0.1086E+00  0.1793E+02
  11.110  0.1070E+00  0.1070E+00  0.1793E+02
  11.120  0.1053E+00  0.1053E+00  0.1794E+02
  11.130  0.1036E+00  0.1036E+00  0.1794E+02
  11.140  0.1019E+00  0.1019E+00  0.1794E+02
  11.150  0.1001E+00  0.1001E+00  0.1794E+02
  11.160  0.9823E-01  0.9823E-01  0.1794E+02
  11.170  0.9636E-01  0.9636E-01  0.1795E+02
  11.180  0.9444E-01  0.9444E-01  0.1795E+02
  11.190  0.9247E-01  0.9247E-01  0.1795E+02
  11.200  0.9046E-01  0.9046E-01  0.1795E+02
  11.210  0.8833E-01  0.8833E-01  0.1795E+02
  11.220  0.8606E-01  0.8606E-01  0.1795E+02
  11.230  0.8379E-01  0.8379E-01  0.1796E+02
  11.240  0.8152E-01  0.8152E-01  0.1796E+02
  11.250  0.7925E-01  0.7925E-01  0.1796E+02
  11.260  0.7698E-01  0.7698E-01  0.1796E+02
  11.270  0.7471E-01  0.7470E-01  0.1796E+02
  11.280  0.7243E-01  0.7243E-01  0.1796E+02
  11.290  0.7016E-01  0.7016E-01  0.1797E+02
  11.300  0.6788E-01  0.6788E-01  0.1797E+02
  11.310  0.6564E-01  0.6564E-01  0.1797E+02
  11.320  0.6431E-01  0.6431E-01  0.1797E+02
  11.330  0.6297E-01  0.6297E-01  0.1797E+02
  11.340  0.6163E-01  0.6163E-01  0.1797E+02
  11.350  0.6028E-01  0.6028E-01  0.1797E+02
  11.360  0.5893E-01  0.5893E-01  0.1797E+02
  11.370  0.5758E-01  0.5758E-01  0.1798E+02
  11.380  0.5622E-01  0.5622E-01  0.1798E+02
  11.390  0.5486E-01  0.5486E-01  0.1798E+02
  11.400  0.5349E-01  0.5349E-01  0.1798E+02
  11.410  0.5212E-01  0.5212E-01  0.1798E+02
  11.420  0.5074E-01  0.5074E-01  0.1798E+02
  11.430  0.4936E-01  0.4936E-01  0.1798E+02
  11.440  0.4798E-01  0.4797E-01  0.1798E+02
  11.450  0.4659E-01  0.4659E-01  0.1798E+02
  11.460  0.4519E-01  0.4519E-01  0.1799E+02
  11.470  0.4380E-01  0.4380E-01  0.1799E+02
  11.480  0.4239E-01  0.4239E-01  0.1799E+02
  11.490  0.4099E-01  0.4099E-01  0.1799E+02
  11.500  0.3958E-01  0.3958E-01  0.1799E+02
  11.510  0.3816E-01  0.3816E-01  0.1799E+02
  11.520  0.3675E-01  0.3674E-01  0.1799E+02
  11.530  0.3532E-01  0.3532E-01  0.1799E+02
  11.540  0.3390E-01  0.3389E-01  0.1799E+02
  11.550  0.3246E-01  0.3246E-01  0.1799E+02
  11.560  0.3103E-01  0.3103E-01  0.1799E+02
  11.570  0.2959E-01  0.2959E-01  0.1799E+02
  11.580  0.2814E-01  0.2814E-01  0.1799E+02
  11.590  0.2670E-01  0.2669E-01  0.1799E+02
  11.600  0.2524E-01  0.2524E-01  0.1799E+02
  11.610  0.2379E-01  0.2378E-01  0.1800E+02
  11.620  0.2910E-01  0.2912E-01  0.1800E+02
  11.630  0.3923E-01  0.3923E-01  0.1800E+02
  11.640  0.3750E-01  0.3749E-01  0.1800E+02
  11.650  0.2391E-01  0.2389E-01  0.1800E+02
  11.660  0.1500E-01  0.1499E-01  0.1800E+02
  11.670  0.1318E-01  0.1318E-01  0.1800E+02
  11.680  0.1148E-01  0.1148E-01  0.1800E+02
  11.690  0.9898E-02  0.9897E-02  0.1800E+02
  11.700  0.8434E-02  0.8432E-02  0.1800E+02
  11.710  0.7086E-02  0.7085E-02  0.1800E+02
  11.720  0.5856E-02  0.5855E-02  0.1800E+02
  11.730  0.4743E-02  0.4742E-02  0.1800E+02
  11.740  0.3747E-02  0.3746E-02  0.1800E+02
  11.750  0.2868E-02  0.2868E-02  0.1800E+02
  11.760  0.2107E-02  0.2106E-02  0.1800E+02
  11.770  0.1463E-02  0.1462E-02  0.1800E+02
  11.780  0.9358E-03  0.9353E-03  0.1800E+02
  11.790  0.5260E-03  0.5257E-03  0.1800E+02
  11.800  0.2335E-03  0.2332E-03  0.1800E+02
  11.810  0.5814E-04  0.5801E-04  0.1800E+02
  11.820  0.0000E+00  0.0000E+00  0.1800E+02
  11.830  0.0000E+00  0.0000E+00  0.1800E+02
  11.840  0.0000E+00  0.0000E+00  0.1800E+02
  11.850  0.0000E+00  0.0000E+00  0.1800E+02
  11.860  0.0000E+00  0.0000E+00  0.1800E+02
  11.870  0.0000E+00  0.0000E+00  0.1800E+02
  11.880  0.0000E+00  0.0000E+00  0.1800E+02
  11.890  0.0000E+00  0.0000E+00  0.1800E+02
  11.900  0.0000E+00  0.0000E+00  0.1800E+02
  11.910  0.0000E+00  0.0000E+00  0.1800E+02
  11.920  0.0000E+00  0.0000E+00  0.1800E+02
  11.930  0.0000E+00  0.0000E+00  0.1800E+02
  11.940  0.0000E+00  0.0000E+00  0.1800E+02
  11.950  0.0000E+00  0.0000E+00  0.1800E+02
  11.960  0.0000E+00  0.0000E+00  0.1800E+02
  11.970  0.0000E+00  0.0000E+00  0.1800E+02
  11.980  0.0000E+00  0.0000E+00  0.1800E+02
  11.990  0.0000E+00  0.0000E+00  0.1800E+02
  12.000  0.0000E+00  0.0000E+00  0.1800E+02
  12.010  0.0000E+00  0.0000E+00  0.1800E+02
  12.020  0.0000E+00  0.0000E+00  0.1800E+02
  12.030  0.0000E+00  0.0000E+00  0.1800E+02
  12.040  0.0000E+00  0.0000E+00  0.1800E+02
  12.050  0.0000E+00  0.0000E+00  0.1800E+02
  12.060  0.0000E+00  0.0000E+00  0.1800E+02
  12.070  0.0000E+00  0.0000E+00  0.1800E+02
  12.080  0.0000E+00  0.0000E+00  0.1800E+02
  12.090  0.0000E+00  0.0000E+00  0.1800E+02
  12.100  0.0000E+00  0.0000E+00  0.1800E+02
  12.110  0.0000E+00  0.0000E+00  0.1800E+02
  12.120  0.0000E+00  0.0000E+00  0.1800E+02
  12.130  0.0000E+00  0.0000E+00  0.1800E+02
  12.140  0.0000E+00  0.0000E+00  0.1800E+02
  12.150  0.0000E+00  0.0000E+00  0.1800E+02
  12.160  0.0000E+00  0.0000E+00  0.1800E+02
  12.170  0.0000E+00  0.0000E+00  0.1800E+02
  12.180  0.0000E+00  0.0000E+00  0.1800E+02
  12.190  0.0000E+00  0.0000E+00  0.1800E+02
  12.200  0.0000E+00  0.0000E+00  0.1800E+02
  12.210  0.0000E+00  0.0000E+00  0.1800E+02
  12.220  0.0000E+00  0.0000E+00  0.1800E+02
  12.230  0.0000E+00  0.0000E+00  0.1800E+02
  12.240  0.0000E+00  0.0000E+00  0.1800E+02
  12.250  0.0000E+00  0.0000E+00  0.1800E+02
  12.260  0.0000E+00  0.0000E+00  0.1800E+02
  12.270  0.0000E+00  0.0000E+00  0.1800E+02
  12.280  0.0000E+00  0.0000E+00  0.1800E+02
  12.290  0.0000E+00  0.0000E+00  0.1800E+02
  12.300  0.0000E+00  0.0000E+00  0.1800E+02
  12.310  0.0000E+00  0.0000E+00  0.1800E+02
  12.320  0.0000E+00  0.0000E+00  0.1800E+02
  12.330  0.0000E+00  0.0000E+00  0.1800E+02
  12.340  0.0000E+00  0.0000E+00  0.1800E+02
  12.350  0.0000E+00  0.0000E+00  0.1800E+02
  12.360  0.0000E+00  0.0000E+00  0.1800E+02
  12.370  0.0000E+00  0.0000E+00  0.1800E+02
  12.380  0.0000E+00  0.0000E+00  0.1800E+02
  12.390  0.0000E+00  0.0000E+00  0.1800E+02
  12.400  0.0000E+00  0.0000E+00  0.1800E+02
  12.410  0.0000E+00  0.0000E+00  0.1800E+02
  12.420  0.0000E+00  0.0000E+00  0.1800E+02
  12.430  0.0000E+00  0.0000E+00  0.1800E+02
  12.440  0.0000E+00  0.0000E+00  0.1800E+02
  12.450  0.0000E+00  0.0000E+00  0.1800E+02
  12.460  0.0000E+00  0.0000E+00  0.1800E+02
  12.470  0.5025E-06  0.4957E-06  0.1800E+02
  12.480  0.9710E-04  0.9701E-04  0.1800E+02
  12.490  0.3610E-03  0.3608E-03  0.1800E+02
  12.500  0.7921E-03  0.7919E-03  0.1800E+02
  12.510  0.1390E-02  0.1390E-02  0.1800E+02
  12.520  0.2154E-02  0.2154E-02  0.1800E+02
  12.530  0.3039E-02  0.3038E-02  0.1800E+02
  12.540  0.4023E-02  0.4023E-02  0.1800E+02
  12.550  0.5107E-02  0.5107E-02  0.1800E+02
  12.560  0.6291E-02  0.6291E-02  0.1800E+02
  12.570  0.7576E-02  0.7576E-02  0.1800E+02
  12.580  0.8960E-02  0.8960E-02  0.1800E+02
  12.590  0.1044E-01  0.1044E-01  0.1800E+02
  12.600  0.1203E-01  0.1203E-01  0.1800E+02
  12.610  0.1371E-01  0.1371E-01  0.1800E+02
  12.620  0.1550E-01  0.1550E-01  0.1800E+02
  12.630  0.1738E-01  0.1738E-01  0.1800E+02
  12.640  0.1937E-01  0.1937E-01  0.1800E+02
  12.650  0.2145E-01  0.2145E-01  0.1800E+02
  12.660  0.2364E-01  0.2364E-01  0.1800E+02
  12.670  0.2592E-01  0.2592E-01  0.1800E+02
  12.680  0.2831E-01  0.2831E-01  0.1800E+02
  12.690  0.3079E-01  0.3079E-01  0.1800E+02
  12.700  0.3338E-01  0.3338E-01  0.1801E+02
  12.710  0.3607E-01  0.3607E-01  0.1801E+02
  12.720  0.3885E-01  0.3885E-01  0.1801E+02
  12.730  0.4023E-01  0.4023E-01  0.1801E+02
  12.740  0.4148E-01  0.4148E-01  0.1801E+02
  12.750  0.4275E-01  0.4275E-01  0.1801E+02
  12.760  0.4403E-01  0.4403E-01  0.1801E+02
  12.770  0.4533E-01  0.4533E-01  0.1801E+02
  12.780  0.4664E-01  0.4664E-01  0.1801E+02
  12.790  0.4796E-01  0.4796E-01  0.1801E+02
  12.800  0.4930E-01  0.4930E-01  0.1801E+02
  12.810  0.5064E-01  0.5064E-01  0.1801E+02
  12.820  0.5205E-01  0.5205E-01  0.1802E+02
  12.830  0.5357E-01  0.5357E-01  0.1802E+02
  12.840  0.5519E-01  0.5519E-01  0.1802E+02
  12.850  0.5691E-01  0.5691E-01  0.1802E+02
  12.860  0.5874E-01  0.5874E-01  0.1802E+02
  12.870  0.6067E-01  0.6067E-01  0.1802E+02
  12.880  0.6270E-01  0.6270E-01  0.1802E+02
  12.890  0.6484E-01  0.6484E-01  0.1802E+02
  12.900  0.6709E-01  0.6709E-01  0.1803E+02
  12.910  0.6943E-01  0.6943E-01  0.1803E+02
  12.920  0.7189E-01  0.7189E-01  0.1803E+02
  12.930  0.7444E-01  0.7444E-01  0.1803E+02
  12.940  0.7710E-01  0.7710E-01  0.1803E+02
  12.950  0.7987E-01  0.7987E-01  0.1803E+02
  12.960  0.8252E-01  0.8252E-01  0.1803E+02
  12.970  0.8403E-01  0.8403E-01  0.1804E+02
  12.980  0.8554E-01  0.8554E-01  0.1804E+02
  12.990  0.8707E-01  0.8707E-01  0.1804E+02
  13.000  0.8861E-01  0.8861E-01  0.1804E+02
  13.010  0.9016E-01  0.9016E-01  0.1804E+02
  13.020  0.9172E-01  0.9172E-01  0.1804E+02
  13.030  0.9329E-01  0.9329E-01  0.1805E+02
  13.040  0.9487E-01  0.9487E-01  0.1805E+02
  13.050  0.9646E-01  0.9646E-01  0.1805E+02
  13.060  0.9806E-01  0.9806E-01  0.1805E+02
  13.070  0.9967E-01  0.9967E-01  0.1805E+02
  13.080  0.1013E+00  0.1013E+00  0.1806E+02
  13.090  0.1029E+00  0.1029E+00  0.1806E+02
  13.100  0.1046E+00  0.1046E+00  0.1806E+02
  13.110  0.1062E+00  0.1062E+00  0.1806E+02
  13.120  0.1079E+00  0.1079E+00  0.1806E+02
  13.130  0.1096E+00  0.1096E+00  0.1807E+02
  13.140  0.1112E+00  0.1112E+00  0.1807E+02
  13.150  0.1129E+00  0.1129E+00  0.1807E+02
  13.160  0.1146E+00  0.1146E+00  0.1807E+02
  13.170  0.1163E+00  0.1163E+00  0.1808E+02
  13.180  0.1179E+00  0.1179E+00  0.1808E+02
  13.190  0.1196E+00  0.1196E+00  0.1808E+02
  13.200  0.1213E+00  0.1213E+00  0.1808E+02
  13.210  0.1229E+00  0.1229E+00  0.1809E+02
  13.220  0.1246E+00  0.1246E+00  0.1809E+02
  13.230  0.1262E+00  0.1262E+00  0.1809E+02
  13.240  0.1279E+00  0.1279E+00  0.1809E+02
  13.250  0.1295E+00  0.1295E+00  0.1810E+02
  13.260  0.1311E+00  0.1311E+00  0.1810E+02
  13.270  0.1327E+00  0.1327E+00  0.1810E+02
  13.280  0.1343E+00  0.1343E+00  0.1810E+02
  13.290  0.1360E+00  0.1360E+00  0.1811E+02
  13.300  0.1376E+00  0.1376E+00  0.1811E+02
  13.310  0.1392E+00  0.1392E+00  0.1811E+02
  13.320  0.1409E+00  0.1409E+00  0.1811E+02
  13.330  0.1427E+00  0.1427E+00  0.1812E+02
  13.340  0.1445E+00  0.1445E+00  0.1812E+02
  13.350  0.1464E+00  0.1464E+00  0.1812E+02
  13.360  0.1483E+00  0.1483E+00  0.1813E+02
  13.370  0.1502E+00  0.1502E+00  0.1813E+02
  13.380  0.1521E+00  0.1521E+00  0.1813E+02
  13.390  0.1541E+00  0.1541E+00  0.1814E+02
  13.400  0.1561E+00  0.1561E+00  0.1814E+02
  13.410  0.1584E+00  0.1584E+00  0.1814E+02
  13.420  0.1613E+00  0.1613E+00  0.1814E+02
  13.430  0.1649E+00  0.1649E+00  0.1815E+02
  13.440  0.1691E+00  0.1691E+00  0.1815E+02
  13.450  0.1741E+00  0.1741E+00  0.1815E+02
  13.460  0.1797E+00  0.1797E+00  0.1816E+02
  13.470  0.1837E+00  0.1837E+00  0.1816E+02
  13.480  0.1858E+00  0.1858E+00  0.1817E+02
  13.490  0.1879E+00  0.1879E+00  0.1817E+02
  13.500  0.1901E+00  0.1901E+00  0.1817E+02
  13.510  0.1923E+00  0.1923E+00  0.1818E+02
  13.520  0.1945E+00  0.1945E+00  0.1818E+02
  13.530  0.1968E+00  0.1968E+00  0.1818E+02
  13.540  0.1992E+00  0.1992E+00  0.1819E+02
  13.550  0.2015E+00  0.2015E+00  0.1819E+02
  13.560  0.2039E+00  0.2039E+00  0.1820E+02
  13.570  0.2063E+00  0.2063E+00  0.1820E+02
  13.580  0.2085E+00  0.2085E+00  0.1820E+02
  13.590  0.2102E+00  0.2103E+00  0.1821E+02
  13.600  0.2119E+00  0.2119E+00  0.1821E+02
  13.610  0.2134E+00  0.2134E+00  0.1822E+02
  13.620  0.2148E+00  0.2148E+00  0.1822E+02
  13.630  0.2161E+00  0.2161E+00  0.1823E+02
  13.640  0.2172E+00  0.2172E+00  0.1823E+02
  13.650  0.2182E+00  0.2182E+00  0.1823E+02
  13.660  0.2191E+00  0.2191E+00  0.1824E+02
  13.670  0.2199E+00  0.2199E+00  0.1824E+02
  13.680  0.2207E+00  0.2207E+00  0.1825E+02
  13.690  0.2213E+00  0.2213E+00  0.1825E+02
  13.700  0.2219E+00  0.2219E+00  0.1826E+02
  13.710  0.2223E+00  0.2223E+00  0.1826E+02
  13.720  0.2226E+00  0.2225E+00  0.1827E+02
  13.730  0.2227E+00  0.2227E+00  0.1827E+02
  13.740  0.2228E+00  0.2228E+00  0.1827E+02
  13.750  0.2238E+00  0.2238E+00  0.1828E+02
  13.760  0.2253E+00  0.2253E+00  0.1828E+02
  13.770  0.2267E+00  0.2267E+00  0.1829E+02
  13.780  0.2282E+00  0.2282E+00  0.1829E+02
  13.790  0.2298E+00  0.2298E+00  0.1830E+02
  13.800  0.2313E+00  0.2313E+00  0.1830E+02
  13.810  0.2328E+00  0.2328E+00  0.1831E+02
  13.820  0.2343E+00  0.2343E+00  0.1831E+02
  13.830  0.2358E+00  0.2358E+00  0.1832E+02
  13.840  0.2373E+00  0.2373E+00  0.1832E+02
  13.850  0.2387E+00  0.2387E+00  0.1833E+02
  13.860  0.2402E+00  0.2402E+00  0.1833E+02
  13.870  0.2417E+00  0.2417E+00  0.1834E+02
  13.880  0.2432E+00  0.2432E+00  0.1834E+02
  13.890  0.2447E+00  0.2447E+00  0.1834E+02
  13.900  0.2461E+00  0.2461E+00  0.1835E+02
  13.910  0.2476E+00  0.2476E+00  0.1835E+02
  13.920  0.2491E+00  0.2491E+00  0.1836E+02
  13.930  0.2505E+00  0.2505E+00  0.1836E+02
  13.940  0.2520E+00  0.2520E+00  0.1837E+02
  13.950  0.2535E+00  0.2535E+00  0.1837E+02
  13.960  0.2549E+00  0.2549E+00  0.1838E+02
  13.970  0.2564E+00  0.2564E+00  0.1838E+02
  13.980  0.2578E+00  0.2578E+00  0.1839E+02
  13.990  0.2592E+00  0.2592E+00  0.1840E+02
  14.000  0.2607E+00  0.2607E+00  0.1840E+02
  14.010  0.2622E+00  0.2622E+00  0.1841E+02
  14.020  0.2634E+00  0.2634E+00  0.1841E+02
  14.030  0.2645E+00  0.2645E+00  0.1842E+02
  14.040  0.2663E+00  0.2663E+00  0.1842E+02
  14.050  0.2698E+00  0.2698E+00  0.1843E+02
  14.060  0.2730E+00  0.2730E+00  0.1843E+02
  14.070  0.2759E+00  0.2759E+00  0.1844E+02
  14.080  0.2784E+00  0.2784E+00  0.1844E+02
  14.090  0.2807E+00  0.2807E+00  0.1845E+02
  14.100  0.2826E+00  0.2826E+00  0.1845E+02
  14.110  0.2842E+00  0.2842E+00  0.1846E+02
  14.120  0.2855E+00  0.2855E+00  0.1847E+02
  14.130  0.2845E+00  0.2845E+00  0.1847E+02
  14.140  0.2834E+00  0.2834E+00  0.1848E+02
  14.150  0.2826E+00  0.2826E+00  0.1848E+02
  14.160  0.2822E+00  0.2822E+00  0.1849E+02
  14.170  0.2822E+00  0.2822E+00  0.1849E+02
  14.180  0.2825E+00  0.2825E+00  0.1850E+02
  14.190  0.2834E+00  0.2834E+00  0.1851E+02
  14.200  0.2849E+00  0.2849E+00  0.1851E+02
  14.210  0.2868E+00  0.2868E+00  0.1852E+02
  14.220  0.2889E+00  0.2889E+00  0.1852E+02
  14.230  0.3087E+00  0.3087E+00  0.1853E+02
  14.240  0.3392E+00  0.3392E+00  0.1854E+02
  14.250  0.3361E+00  0.3361E+00  0.1854E+02
  14.260  0.3200E+00  0.3200E+00  0.1855E+02
  14.270  0.3088E+00  0.3088E+00  0.1855E+02
  14.280  0.3089E+00  0.3089E+00  0.1856E+02
  14.290  0.3116E+00  0.3116E+00  0.1857E+02
  14.300  0.3144E+00  0.3144E+00  0.1857E+02
  14.310  0.3172E+00  0.3172E+00  0.1858E+02
  14.320  0.3201E+00  0.3201E+00  0.1859E+02
  14.330  0.3230E+00  0.3230E+00  0.1859E+02
  14.340  0.3260E+00  0.3260E+00  0.1860E+02
  14.350  0.3290E+00  0.3290E+00  0.1861E+02
  14.360  0.3321E+00  0.3321E+00  0.1861E+02
  14.370  0.3353E+00  0.3353E+00  0.1862E+02
  14.380  0.3385E+00  0.3385E+00  0.1863E+02
  14.390  0.3417E+00  0.3417E+00  0.1863E+02
  14.400  0.3450E+00  0.3450E+00  0.1864E+02
  14.410  0.3484E+00  0.3484E+00  0.1865E+02
  14.420  0.3518E+00  0.3518E+00  0.1865E+02
  14.430  0.3553E+00  0.3553E+00  0.1866E+02
  14.440  0.3589E+00  0.3589E+00  0.1867E+02
  14.450  0.3626E+00  0.3626E+00  0.1867E+02
  14.460  0.3664E+00  0.3664E+00  0.1868E+02
  14.470  0.3708E+00  0.3708E+00  0.1869E+02
  14.480  0.3764E+00  0.3764E+00  0.1870E+02
  14.490  0.3824E+00  0.3824E+00  0.1870E+02
  14.500  0.3887E+00  0.3887E+00  0.1871E+02
  14.510  0.3954E+00  0.3954E+00  0.1872E+02
  14.520  0.4023E+00  0.4023E+00  0.1873E+02
  14.530  0.4095E+00  0.4095E+00  0.1874E+02
  14.540  0.4170E+00  0.4170E+00  0.1874E+02
  14.550  0.4246E+00  0.4246E+00  0.1875E+02
  14.560  0.4324E+00  0.4324E+00  0.1876E+02
  14.570  0.4404E+00  0.4404E+00  0.1877E+02
  14.580  0.4485E+00  0.4485E+00  0.1878E+02
  14.590  0.4569E+00  0.4569E+00  0.1879E+02
  14.600  0.4654E+00  0.4654E+00  0.1880E+02
  14.610  0.4742E+00  0.4742E+00  0.1881E+02
  14.620  0.4831E+00  0.4831E+00  0.1882E+02
  14.630  0.4919E+00  0.4919E+00  0.1883E+02
  14.640  0.4997E+00  0.4997E+00  0.1884E+02
  14.650  0.5078E+00  0.5078E+00  0.1885E+02
  14.660  0.5160E+00  0.5160E+00  0.1886E+02
  14.670  0.5244E+00  0.5244E+00  0.1887E+02
  14.680  0.5331E+00  0.5331E+00  0.1888E+02
  14.690  0.5419E+00  0.5419E+00  0.1889E+02
  14.700  0.5509E+00  0.5509E+00  0.1890E+02
  14.710  0.5601E+00  0.5601E+00  0.1891E+02
  14.720  0.5697E+00  0.5697E+00  0.1892E+02
  14.730  0.5805E+00  0.5805E+00  0.1893E+02
  14.740  0.5928E+00  0.5928E+00  0.1894E+02
  14.750  0.6065E+00  0.6065E+00  0.1896E+02
  14.760  0.6218E+00  0.6218E+00  0.1897E+02
  14.770  0.6386E+00  0.6386E+00  0.1898E+02
  14.780  0.6867E+00  0.6867E+00  0.1899E+02
  14.790  0.7149E+00  0.7149E+00  0.1901E+02
  14.800  0.7195E+00  0.7195E+00  0.1902E+02
  14.810  0.7005E+00  0.7005E+00  0.1904E+02
  14.820  0.6701E+00  0.6701E+00  0.1905E+02
  14.830  0.6723E+00  0.6723E+00  0.1906E+02
  14.840  0.6759E+00  0.6759E+00  0.1908E+02
  14.850  0.6800E+00  0.6800E+00  0.1909E+02
  14.860  0.6842E+00  0.6842E+00  0.1910E+02
  14.870  0.6881E+00  0.6881E+00  0.1912E+02
  14.880  0.6917E+00  0.6917E+00  0.1913E+02
  14.890  0.6945E+00  0.6945E+00  0.1915E+02
  14.900  0.6970E+00  0.6970E+00  0.1916E+02
  14.910  0.6993E+00  0.6993E+00  0.1917E+02
  14.920  0.7012E+00  0.7012E+00  0.1919E+02
  14.930  0.7029E+00  0.7029E+00  0.1920E+02
  14.940  0.7043E+00  0.7043E+00  0.1922E+02
  14.950  0.7055E+00  0.7055E+00  0.1923E+02
  14.960  0.7063E+00  0.7063E+00  0.1924E+02
  14.970  0.7069E+00  0.7069E+00  0.1926E+02
  14.980  0.7087E+00  0.7087E+00  0.1927E+02
  14.990  0.7107E+00  0.7107E+00  0.1929E+02
  15.000  0.7127E+00  0.7127E+00  0.1930E+02
  15.010  0.7146E+00  0.7146E+00  0.1932E+02
  15.020  0.7167E+00  0.7167E+00  0.1933E+02
  15.030  0.7189E+00  0.7189E+00  0.1934E+02
  15.040  0.7211E+00  0.7211E+00  0.1936E+02
  15.050  0.7233E+00  0.7233E+00  0.1937E+02
  15.060  0.7253E+00  0.7253E+00  0.1939E+02
  15.070  0.7286E+00  0.7286E+00  0.1940E+02
  15.080  0.7366E+00  0.7366E+00  0.1942E+02
  15.090  0.7494E+00  0.7494E+00  0.1943E+02
  15.100  0.7670E+00  0.7670E+00  0.1945E+02
  15.110  0.7893E+00  0.7893E+00  0.1946E+02
  15.120  0.8637E+00  0.8637E+00  0.1948E+02
  15.130  0.8264E+00  0.8264E+00  0.1950E+02
  15.140  0.8125E+00  0.8125E+00  0.1951E+02
  15.150  0.8024E+00  0.8024E+00  0.1953E+02
  15.160  0.7961E+00  0.7961E+00  0.1954E+02
  15.170  0.7936E+00  0.7936E+00  0.1956E+02
  15.180  0.7925E+00  0.7925E+00  0.1958E+02
  15.190  0.7902E+00  0.7902E+00  0.1959E+02
  15.200  0.7876E+00  0.7876E+00  0.1961E+02
  15.210  0.7844E+00  0.7844E+00  0.1962E+02
  15.220  0.7806E+00  0.7806E+00  0.1964E+02
  15.230  0.7758E+00  0.7758E+00  0.1965E+02
  15.240  0.7707E+00  0.7707E+00  0.1967E+02
  15.250  0.7652E+00  0.7652E+00  0.1969E+02
  15.260  0.7593E+00  0.7593E+00  0.1970E+02
  15.270  0.7530E+00  0.7530E+00  0.1972E+02
  15.280  0.7465E+00  0.7465E+00  0.1973E+02
  15.290  0.7397E+00  0.7397E+00  0.1975E+02
  15.300  0.7326E+00  0.7326E+00  0.1976E+02
  15.310  0.7252E+00  0.7252E+00  0.1977E+02
  15.320  0.7175E+00  0.7175E+00  0.1979E+02
  15.330  0.7095E+00  0.7095E+00  0.1980E+02
  15.340  0.7012E+00  0.7012E+00  0.1982E+02
  15.350  0.6926E+00  0.6926E+00  0.1983E+02
  15.360  0.6838E+00  0.6838E+00  0.1985E+02
  15.370  0.6746E+00  0.6746E+00  0.1986E+02
  15.380  0.6652E+00  0.6652E+00  0.1987E+02
  15.390  0.6554E+00  0.6554E+00  0.1989E+02
  15.400  0.6454E+00  0.6454E+00  0.1990E+02
  15.410  0.6350E+00  0.6350E+00  0.1991E+02
  15.420  0.6235E+00  0.6235E+00  0.1992E+02
  15.430  0.5992E+00  0.5991E+00  0.1994E+02
  15.440  0.5780E+00  0.5780E+00  0.1995E+02
  15.450  0.5639E+00  0.5639E+00  0.1996E+02
  15.460  0.5562E+00  0.5562E+00  0.1997E+02
  15.470  0.5484E+00  0.5484E+00  0.1998E+02
  15.480  0.5405E+00  0.5405E+00  0.1999E+02
  15.490  0.5325E+00  0.5325E+00  0.2000E+02
  15.500  0.5243E+00  0.5243E+00  0.2001E+02
  15.510  0.5160E+00  0.5160E+00  0.2002E+02
  15.520  0.5076E+00  0.5076E+00  0.2003E+02
  15.530  0.4991E+00  0.4991E+00  0.2004E+02
  15.540  0.4905E+00  0.4905E+00  0.2005E+02
  15.550  0.4818E+00  0.4818E+00  0.2006E+02
  15.560  0.4731E+00  0.4731E+00  0.2007E+02
  15.570  0.4645E+00  0.4645E+00  0.2008E+02
  15.580  0.4560E+00  0.4560E+00  0.2009E+02
  15.590  0.4474E+00  0.4474E+00  0.2010E+02
  15.600  0.4388E+00  0.4388E+00  0.2011E+02
  15.610  0.4302E+00  0.4302E+00  0.2012E+02
  15.620  0.4214E+00  0.4214E+00  0.2013E+02
  15.630  0.4125E+00  0.4125E+00  0.2014E+02
  15.640  0.4034E+00  0.4034E+00  0.2014E+02
  15.650  0.3941E+00  0.3941E+00  0.2015E+02
  15.660  0.3847E+00  0.3847E+00  0.2016E+02
  15.670  0.3754E+00  0.3754E+00  0.2017E+02
  15.680  0.3663E+00  0.3663E+00  0.2017E+02
  15.690  0.3574E+00  0.3574E+00  0.2018E+02
  15.700  0.3486E+00  0.3486E+00  0.2019E+02
  15.710  0.3399E+00  0.3399E+00  0.2020E+02
  15.720  0.3314E+00  0.3314E+00  0.2020E+02
  15.730  0.3230E+00  0.3230E+00  0.2021E+02
  15.740  0.3158E+00  0.3158E+00  0.2022E+02
  15.750  0.3087E+00  0.3087E+00  0.2022E+02
  15.760  0.3017E+00  0.3017E+00  0.2023E+02
  15.770  0.2948E+00  0.2948E+00  0.2023E+02
  15.780  0.2879E+00  0.2879E+00  0.2024E+02
  15.790  0.2812E+00  0.2812E+00  0.2025E+02
  15.800  0.2755E+00  0.2755E+00  0.2025E+02
  15.810  0.2702E+00  0.2702E+00  0.2026E+02
  15.820  0.2651E+00  0.2651E+00  0.2026E+02
  15.830  0.2601E+00  0.2601E+00  0.2027E+02
  15.840  0.2558E+00  0.2558E+00  0.2027E+02
  15.850  0.2521E+00  0.2521E+00  0.2028E+02
  15.860  0.2484E+00  0.2484E+00  0.2028E+02
  15.870  0.2438E+00  0.2438E+00  0.2029E+02
  15.880  0.2394E+00  0.2394E+00  0.2029E+02
  15.890  0.2352E+00  0.2352E+00  0.2030E+02
  15.900  0.2313E+00  0.2313E+00  0.2030E+02
  15.910  0.2277E+00  0.2277E+00  0.2031E+02
  15.920  0.2243E+00  0.2243E+00  0.2031E+02
  15.930  0.2217E+00  0.2217E+00  0.2031E+02
  15.940  0.2467E+00  0.2467E+00  0.2032E+02
  15.950  0.2387E+00  0.2387E+00  0.2032E+02
  15.960  0.2278E+00  0.2278E+00  0.2033E+02
  15.970  0.2289E+00  0.2289E+00  0.2033E+02
  15.980  0.2312E+00  0.2312E+00  0.2034E+02
  15.990  0.2355E+00  0.2355E+00  0.2034E+02
  16.000  0.2400E+00  0.2400E+00  0.2035E+02
  16.010  0.2447E+00  0.2447E+00  0.2035E+02
  16.020  0.2497E+00  0.2497E+00  0.2036E+02
  16.030  0.2548E+00  0.2548E+00  0.2036E+02
  16.040  0.2601E+00  0.2601E+00  0.2037E+02
  16.050  0.2658E+00  0.2658E+00  0.2037E+02
  16.060  0.2718E+00  0.2718E+00  0.2038E+02
  16.070  0.2780E+00  0.2780E+00  0.2038E+02
  16.080  0.2849E+00  0.2849E+00  0.2039E+02
  16.090  0.2928E+00  0.2928E+00  0.2040E+02
  16.100  0.3008E+00  0.3008E+00  0.2040E+02
  16.110  0.3093E+00  0.3093E+00  0.2041E+02
  16.120  0.3182E+00  0.3182E+00  0.2041E+02
  16.130  0.3273E+00  0.3273E+00  0.2042E+02
  16.140  0.3369E+00  0.3369E+00  0.2043E+02
  16.150  0.3467E+00  0.3467E+00  0.2043E+02
  16.160  0.3569E+00  0.3569E+00  0.2044E+02
  16.170  0.3675E+00  0.3675E+00  0.2045E+02
  16.180  0.3812E+00  0.3812E+00  0.2046E+02
  16.190  0.4022E+00  0.4022E+00  0.2046E+02
  16.200  0.4218E+00  0.4218E+00  0.2047E+02
  16.210  0.4402E+00  0.4402E+00  0.2048E+02
  16.220  0.4574E+00  0.4574E+00  0.2049E+02
  16.230  0.4721E+00  0.4721E+00  0.2050E+02
  16.240  0.4857E+00  0.4857E+00  0.2051E+02
  16.250  0.4988E+00  0.4988E+00  0.2052E+02
  16.260  0.5123E+00  0.5123E+00  0.2053E+02
  16.270  0.5260E+00  0.5260E+00  0.2054E+02
  16.280  0.5395E+00  0.5395E+00  0.2055E+02
  16.290  0.5529E+00  0.5529E+00  0.2056E+02
  16.300  0.5661E+00  0.5661E+00  0.2057E+02
  16.310  0.5791E+00  0.5791E+00  0.2058E+02
  16.320  0.5920E+00  0.5920E+00  0.2059E+02
  16.330  0.6200E+00  0.6200E+00  0.2061E+02
  16.340  0.6509E+00  0.6509E+00  0.2062E+02
  16.350  0.6844E+00  0.6844E+00  0.2063E+02
  16.360  0.7205E+00  0.7205E+00  0.2065E+02
  16.370  0.7586E+00  0.7586E+00  0.2066E+02
  16.380  0.7577E+00  0.7577E+00  0.2068E+02
  16.390  0.7642E+00  0.7642E+00  0.2069E+02
  16.400  0.7709E+00  0.7709E+00  0.2071E+02
  16.410  0.7772E+00  0.7772E+00  0.2072E+02
  16.420  0.7830E+00  0.7830E+00  0.2074E+02
  16.430  0.7887E+00  0.7887E+00  0.2075E+02
  16.440  0.7952E+00  0.7952E+00  0.2077E+02
  16.450  0.8024E+00  0.8024E+00  0.2079E+02
  16.460  0.8092E+00  0.8092E+00  0.2080E+02
  16.470  0.8051E+00  0.8051E+00  0.2082E+02
  16.480  0.8114E+00  0.8114E+00  0.2083E+02
  16.490  0.8174E+00  0.8174E+00  0.2085E+02
  16.500  0.8229E+00  0.8229E+00  0.2087E+02
  16.510  0.8278E+00  0.8278E+00  0.2088E+02
  16.520  0.8320E+00  0.8320E+00  0.2090E+02
  16.530  0.8359E+00  0.8359E+00  0.2092E+02
  16.540  0.8404E+00  0.8404E+00  0.2093E+02
  16.550  0.8453E+00  0.8453E+00  0.2095E+02
  16.560  0.8529E+00  0.8529E+00  0.2097E+02
  16.570  0.8610E+00  0.8610E+00  0.2098E+02
  16.580  0.8666E+00  0.8666E+00  0.2100E+02
  16.590  0.8699E+00  0.8699E+00  0.2102E+02
  16.600  0.8707E+00  0.8707E+00  0.2104E+02
  16.610  0.8692E+00  0.8692E+00  0.2105E+02
  16.620  0.8652E+00  0.8652E+00  0.2107E+02
  16.630  0.8574E+00  0.8574E+00  0.2109E+02
  16.640  0.8495E+00  0.8495E+00  0.2110E+02
  16.650  0.8485E+00  0.8485E+00  0.2112E+02
  16.660  0.8529E+00  0.8529E+00  0.2114E+02
  16.670  0.8366E+00  0.8366E+00  0.2116E+02
  16.680  0.8007E+00  0.8007E+00  0.2117E+02
  16.690  0.7704E+00  0.7704E+00  0.2119E+02
  16.700  0.7459E+00  0.7459E+00  0.2120E+02
  16.710  0.7248E+00  0.7248E+00  0.2122E+02
  16.720  0.7025E+00  0.7025E+00  0.2123E+02
  16.730  0.6822E+00  0.6822E+00  0.2125E+02
  16.740  0.6637E+00  0.6637E+00  0.2126E+02
  16.750  0.6519E+00  0.6519E+00  0.2127E+02
  16.760  0.6677E+00  0.6677E+00  0.2129E+02
  16.770  0.6428E+00  0.6428E+00  0.2130E+02
  16.780  0.6276E+00  0.6276E+00  0.2131E+02
  16.790  0.6213E+00  0.6213E+00  0.2132E+02
  16.800  0.6162E+00  0.6162E+00  0.2134E+02
  16.810  0.6120E+00  0.6120E+00  0.2135E+02
  16.820  0.6087E+00  0.6087E+00  0.2136E+02
  16.830  0.6065E+00  0.6065E+00  0.2137E+02
  16.840  0.6066E+00  0.6066E+00  0.2139E+02
  16.850  0.6074E+00  0.6074E+00  0.2140E+02
  16.860  0.6079E+00  0.6079E+00  0.2141E+02
  16.870  0.6079E+00  0.6079E+00  0.2142E+02
  16.880  0.6076E+00  0.6076E+00  0.2143E+02
  16.890  0.6070E+00  0.6070E+00  0.2145E+02
  16.900  0.6059E+00  0.6059E+00  0.2146E+02
  16.910  0.6044E+00  0.6044E+00  0.2147E+02
  16.920  0.6025E+00  0.6025E+00  0.2148E+02
  16.930  0.6001E+00  0.6001E+00  0.2149E+02
  16.940  0.5974E+00  0.5974E+00  0.2151E+02
  16.950  0.5960E+00  0.5960E+00  0.2152E+02
  16.960  0.5958E+00  0.5958E+00  0.2153E+02
  16.970  0.5954E+00  0.5954E+00  0.2154E+02
  16.980  0.5948E+00  0.5948E+00  0.2155E+02
  16.990  0.5942E+00  0.5942E+00  0.2157E+02
  17.000  0.5934E+00  0.5934E+00  0.2158E+02
  17.010  0.5932E+00  0.5932E+00  0.2159E+02
  17.020  0.5930E+00  0.5930E+00  0.2160E+02
  17.030  0.5921E+00  0.5921E+00  0.2161E+02
  17.040  0.5902E+00  0.5902E+00  0.2163E+02
  17.050  0.5882E+00  0.5882E+00  0.2164E+02
  17.060  0.5861E+00  0.5861E+00  0.2165E+02
  17.070  0.5839E+00  0.5839E+00  0.2166E+02
  17.080  0.5816E+00  0.5816E+00  0.2167E+02
  17.090  0.5792E+00  0.5792E+00  0.2168E+02
  17.100  0.5767E+00  0.5767E+00  0.2170E+02
  17.110  0.5742E+00  0.5742E+00  0.2171E+02
  17.120  0.5715E+00  0.5715E+00  0.2172E+02
  17.130  0.5688E+00  0.5688E+00  0.2173E+02
  17.140  0.5659E+00  0.5659E+00  0.2174E+02
  17.150  0.5630E+00  0.5630E+00  0.2175E+02
  17.160  0.5600E+00  0.5600E+00  0.2176E+02
  17.170  0.5569E+00  0.5569E+00  0.2177E+02
  17.180  0.5540E+00  0.5540E+00  0.2179E+02
  17.190  0.5513E+00  0.5513E+00  0.2180E+02
  17.200  0.5488E+00  0.5488E+00  0.2181E+02
  17.210  0.5467E+00  0.5467E+00  0.2182E+02
  17.220  0.5445E+00  0.5445E+00  0.2183E+02
  17.230  0.5417E+00  0.5417E+00  0.2184E+02
  17.240  0.5386E+00  0.5386E+00  0.2185E+02
  17.250  0.5354E+00  0.5354E+00  0.2186E+02
  17.260  0.5324E+00  0.5324E+00  0.2187E+02
  17.270  0.5292E+00  0.5292E+00  0.2188E+02
  17.280  0.5253E+00  0.5253E+00  0.2189E+02
  17.290  0.5208E+00  0.5207E+00  0.2190E+02
  17.300  0.5142E+00  0.5142E+00  0.2191E+02
  17.310  0.5069E+00  0.5069E+00  0.2192E+02
  17.320  0.4999E+00  0.4999E+00  0.2194E+02
  17.330  0.4931E+00  0.4931E+00  0.2194E+02
  17.340  0.4866E+00  0.4866E+00  0.2195E+02
  17.350  0.4803E+00  0.4803E+00  0.2196E+02
  17.360  0.4753E+00  0.4753E+00  0.2197E+02
  17.370  0.4719E+00  0.4719E+00  0.2198E+02
  17.380  0.4700E+00  0.4700E+00  0.2199E+02
  17.390  0.4698E+00  0.4698E+00  0.2200E+02
  17.400  0.4691E+00  0.4691E+00  0.2201E+02
  17.410  0.4665E+00  0.4665E+00  0.2202E+02
  17.420  0.4644E+00  0.4644E+00  0.2203E+02
  17.430  0.4628E+00  0.4628E+00  0.2204E+02
  17.440  0.4618E+00  0.4618E+00  0.2205E+02
  17.450  0.4613E+00  0.4613E+00  0.2206E+02
  17.460  0.4613E+00  0.4613E+00  0.2207E+02
  17.470  0.4619E+00  0.4619E+00  0.2208E+02
  17.480  0.4629E+00  0.4629E+00  0.2209E+02
  17.490  0.4643E+00  0.4643E+00  0.2210E+02
  17.500  0.4659E+00  0.4659E+00  0.2210E+02
  17.510  0.4675E+00  0.4675E+00  0.2211E+02
  17.520  0.4672E+00  0.4672E+00  0.2212E+02
  17.530  0.4669E+00  0.4669E+00  0.2213E+02
  17.540  0.4665E+00  0.4665E+00  0.2214E+02
  17.550  0.4661E+00  0.4661E+00  0.2215E+02
  17.560  0.4656E+00  0.4656E+00  0.2216E+02
  17.570  0.4650E+00  0.4650E+00  0.2217E+02
  17.580  0.4644E+00  0.4644E+00  0.2218E+02
  17.590  0.4636E+00  0.4636E+00  0.2219E+02
  17.600  0.4621E+00  0.4621E+00  0.2220E+02
  17.610  0.4606E+00  0.4606E+00  0.2221E+02
  17.620  0.4590E+00  0.4590E+00  0.2222E+02
  17.630  0.4575E+00  0.4575E+00  0.2223E+02
  17.640  0.4561E+00  0.4561E+00  0.2223E+02
  17.650  0.4548E+00  0.4548E+00  0.2224E+02
  17.660  0.4538E+00  0.4538E+00  0.2225E+02
  17.670  0.4533E+00  0.4533E+00  0.2226E+02
  17.680  0.4531E+00  0.4531E+00  0.2227E+02
  17.690  0.4530E+00  0.4530E+00  0.2228E+02
  17.700  0.4532E+00  0.4532E+00  0.2229E+02
  17.710  0.4536E+00  0.4536E+00  0.2230E+02
  17.720  0.4542E+00  0.4542E+00  0.2231E+02
  17.730  0.4551E+00  0.4551E+00  0.2232E+02
  17.740  0.4562E+00  0.4562E+00  0.2233E+02
  17.750  0.4544E+00  0.4544E+00  0.2233E+02
  17.760  0.4462E+00  0.4462E+00  0.2234E+02
  17.770  0.4455E+00  0.4455E+00  0.2235E+02
  17.780  0.4462E+00  0.4462E+00  0.2236E+02
  17.790  0.4504E+00  0.4504E+00  0.2237E+02
  17.800  0.4544E+00  0.4544E+00  0.2238E+02
  17.810  0.4579E+00  0.4579E+00  0.2239E+02
  17.820  0.4608E+00  0.4608E+00  0.2240E+02
  17.830  0.4630E+00  0.4630E+00  0.2241E+02
  17.840  0.4647E+00  0.4647E+00  0.2242E+02
  17.850  0.4657E+00  0.4657E+00  0.2243E+02
  17.860  0.4662E+00  0.4662E+00  0.2243E+02
  17.870  0.4661E+00  0.4661E+00  0.2244E+02
  17.880  0.4687E+00  0.4687E+00  0.2245E+02
  17.890  0.4717E+00  0.4717E+00  0.2246E+02
  17.900  0.4748E+00  0.4748E+00  0.2247E+02
  17.910  0.4779E+00  0.4779E+00  0.2248E+02
  17.920  0.4812E+00  0.4812E+00  0.2249E+02
  17.930  0.4845E+00  0.4845E+00  0.2250E+02
  17.940  0.4879E+00  0.4879E+00  0.2251E+02
  17.950  0.4914E+00  0.4914E+00  0.2252E+02
  17.960  0.4950E+00  0.4950E+00  0.2253E+02
  17.970  0.4986E+00  0.4986E+00  0.2254E+02
  17.980  0.5024E+00  0.5024E+00  0.2255E+02
  17.990  0.5060E+00  0.5060E+00  0.2256E+02
  18.000  0.5033E+00  0.5033E+00  0.2257E+02
  18.010  0.5020E+00  0.5020E+00  0.2258E+02
  18.020  0.5022E+00  0.5022E+00  0.2259E+02
  18.030  0.5037E+00  0.5037E+00  0.2260E+02
  18.040  0.5066E+00  0.5066E+00  0.2261E+02
  18.050  0.5141E+00  0.5141E+00  0.2262E+02
  18.060  0.5253E+00  0.5253E+00  0.2263E+02
  18.070  0.5398E+00  0.5398E+00  0.2264E+02
  18.080  0.6439E+00  0.6440E+00  0.2265E+02
  18.090  0.5399E+00  0.5399E+00  0.2266E+02
  18.100  0.5305E+00  0.5305E+00  0.2268E+02
  18.110  0.5217E+00  0.5217E+00  0.2269E+02
  18.120  0.5136E+00  0.5136E+00  0.2270E+02
  18.130  0.5061E+00  0.5061E+00  0.2271E+02
  18.140  0.4992E+00  0.4992E+00  0.2272E+02
  18.150  0.4930E+00  0.4930E+00  0.2273E+02
  18.160  0.4874E+00  0.4874E+00  0.2274E+02
  18.170  0.4825E+00  0.4825E+00  0.2275E+02
  18.180  0.4774E+00  0.4774E+00  0.2276E+02
  18.190  0.4741E+00  0.4741E+00  0.2276E+02
  18.200  0.4723E+00  0.4723E+00  0.2277E+02
  18.210  0.4707E+00  0.4707E+00  0.2278E+02
  18.220  0.4692E+00  0.4692E+00  0.2279E+02
  18.230  0.4678E+00  0.4678E+00  0.2280E+02
  18.240  0.4665E+00  0.4665E+00  0.2281E+02
  18.250  0.4652E+00  0.4652E+00  0.2282E+02
  18.260  0.4640E+00  0.4640E+00  0.2283E+02
  18.270  0.4628E+00  0.4628E+00  0.2284E+02
  18.280  0.4617E+00  0.4617E+00  0.2285E+02
  18.290  0.4607E+00  0.4607E+00  0.2286E+02
  18.300  0.4598E+00  0.4598E+00  0.2287E+02
  18.310  0.4589E+00  0.4589E+00  0.2288E+02
  18.320  0.4581E+00  0.4581E+00  0.2289E+02
  18.330  0.4573E+00  0.4573E+00  0.2289E+02
  18.340  0.4569E+00  0.4569E+00  0.2290E+02
  18.350  0.4568E+00  0.4568E+00  0.2291E+02
  18.360  0.4566E+00  0.4566E+00  0.2292E+02
  18.370  0.4564E+00  0.4564E+00  0.2293E+02
  18.380  0.4561E+00  0.4561E+00  0.2294E+02
  18.390  0.4616E+00  0.4616E+00  0.2295E+02
  18.400  0.4679E+00  0.4679E+00  0.2296E+02
  18.410  0.4718E+00  0.4718E+00  0.2297E+02
  18.420  0.4734E+00  0.4734E+00  0.2298E+02
  18.430  0.4728E+00  0.4728E+00  0.2299E+02
  18.440  0.4719E+00  0.4719E+00  0.2300E+02
  18.450  0.4708E+00  0.4708E+00  0.2301E+02
  18.460  0.4690E+00  0.4690E+00  0.2302E+02
  18.470  0.4671E+00  0.4671E+00  0.2303E+02
  18.480  0.4652E+00  0.4652E+00  0.2303E+02
  18.490  0.4636E+00  0.4636E+00  0.2304E+02
  18.500  0.4631E+00  0.4631E+00  0.2305E+02
  18.510  0.4639E+00  0.4639E+00  0.2306E+02
  18.520  0.4646E+00  0.4646E+00  0.2307E+02
  18.530  0.4653E+00  0.4653E+00  0.2308E+02
  18.540  0.4657E+00  0.4657E+00  0.2309E+02
  18.550  0.4660E+00  0.4660E+00  0.2310E+02
  18.560  0.4660E+00  0.4660E+00  0.2311E+02
  18.570  0.4658E+00  0.4658E+00  0.2312E+02
  18.580  0.4655E+00  0.4655E+00  0.2313E+02
  18.590  0.4649E+00  0.4649E+00  0.2314E+02
  18.600  0.4641E+00  0.4641E+00  0.2315E+02
  18.610  0.4631E+00  0.4631E+00  0.2316E+02
  18.620  0.4618E+00  0.4618E+00  0.2316E+02
  18.630  0.4604E+00  0.4604E+00  0.2317E+02
  18.640  0.4588E+00  0.4588E+00  0.2318E+02
  18.650  0.4569E+00  0.4569E+00  0.2319E+02
  18.660  0.4547E+00  0.4547E+00  0.2320E+02
  18.670  0.4523E+00  0.4523E+00  0.2321E+02
  18.680  0.4499E+00  0.4499E+00  0.2322E+02
  18.690  0.4473E+00  0.4473E+00  0.2323E+02
  18.700  0.4446E+00  0.4446E+00  0.2324E+02
  18.710  0.4431E+00  0.4431E+00  0.2325E+02
  18.720  0.4422E+00  0.4422E+00  0.2325E+02
  18.730  0.4413E+00  0.4413E+00  0.2326E+02
  18.740  0.4405E+00  0.4405E+00  0.2327E+02
  18.750  0.4397E+00  0.4397E+00  0.2328E+02
  18.760  0.4389E+00  0.4389E+00  0.2329E+02
  18.770  0.4381E+00  0.4381E+00  0.2330E+02
  18.780  0.4371E+00  0.4371E+00  0.2331E+02
  18.790  0.4360E+00  0.4360E+00  0.2332E+02
  18.800  0.4348E+00  0.4348E+00  0.2333E+02
  18.810  0.4337E+00  0.4337E+00  0.2333E+02
  18.820  0.4326E+00  0.4326E+00  0.2334E+02
  18.830  0.4315E+00  0.4315E+00  0.2335E+02
  18.840  0.4304E+00  0.4304E+00  0.2336E+02
  18.850  0.4293E+00  0.4293E+00  0.2337E+02
  18.860  0.4282E+00  0.4282E+00  0.2338E+02
  18.870  0.4272E+00  0.4272E+00  0.2339E+02
  18.880  0.4263E+00  0.4263E+00  0.2339E+02
  18.890  0.4254E+00  0.4254E+00  0.2340E+02
  18.900  0.4247E+00  0.4247E+00  0.2341E+02
  18.910  0.4240E+00  0.4240E+00  0.2342E+02
  18.920  0.4235E+00  0.4235E+00  0.2343E+02
  18.930  0.4231E+00  0.4231E+00  0.2344E+02
  18.940  0.4228E+00  0.4228E+00  0.2344E+02
  18.950  0.4228E+00  0.4228E+00  0.2345E+02
  18.960  0.4229E+00  0.4229E+00  0.2346E+02
  18.970  0.4231E+00  0.4231E+00  0.2347E+02
  18.980  0.4234E+00  0.4234E+00  0.2348E+02
  18.990  0.4238E+00  0.4238E+00  0.2349E+02
  19.000  0.4241E+00  0.4241E+00  0.2350E+02
  19.010  0.4240E+00  0.4240E+00  0.2350E+02
  19.020  0.4240E+00  0.4240E+00  0.2351E+02
  19.030  0.4240E+00  0.4240E+00  0.2352E+02
  19.040  0.4240E+00  0.4240E+00  0.2353E+02
  19.050  0.4244E+00  0.4244E+00  0.2354E+02
  19.060  0.4251E+00  0.4251E+00  0.2355E+02
  19.070  0.4259E+00  0.4259E+00  0.2355E+02
  19.080  0.4268E+00  0.4268E+00  0.2356E+02
  19.090  0.4278E+00  0.4278E+00  0.2357E+02
  19.100  0.4289E+00  0.4289E+00  0.2358E+02
  19.110  0.4301E+00  0.4301E+00  0.2359E+02
  19.120  0.4314E+00  0.4314E+00  0.2360E+02
  19.130  0.4327E+00  0.4327E+00  0.2361E+02
  19.140  0.4342E+00  0.4342E+00  0.2362E+02
  19.150  0.4358E+00  0.4358E+00  0.2362E+02
  19.160  0.4373E+00  0.4373E+00  0.2363E+02
  19.170  0.4384E+00  0.4384E+00  0.2364E+02
  19.180  0.4394E+00  0.4394E+00  0.2365E+02
  19.190  0.4403E+00  0.4403E+00  0.2366E+02
  19.200  0.4409E+00  0.4409E+00  0.2367E+02
  19.210  0.4411E+00  0.4411E+00  0.2368E+02
  19.220  0.4410E+00  0.4410E+00  0.2369E+02
  19.230  0.4405E+00  0.4405E+00  0.2369E+02
  19.240  0.4412E+00  0.4412E+00  0.2370E+02
  19.250  0.4427E+00  0.4427E+00  0.2371E+02
  19.260  0.4440E+00  0.4440E+00  0.2372E+02
  19.270  0.4451E+00  0.4451E+00  0.2373E+02
  19.280  0.4461E+00  0.4461E+00  0.2374E+02
  19.290  0.4469E+00  0.4469E+00  0.2375E+02
  19.300  0.4475E+00  0.4475E+00  0.2376E+02
  19.310  0.4479E+00  0.4479E+00  0.2377E+02
  19.320  0.4480E+00  0.4480E+00  0.2377E+02
  19.330  0.4480E+00  0.4480E+00  0.2378E+02
  19.340  0.4476E+00  0.4476E+00  0.2379E+02
  19.350  0.4471E+00  0.4471E+00  0.2380E+02
  19.360  0.4467E+00  0.4467E+00  0.2381E+02
  19.370  0.4462E+00  0.4462E+00  0.2382E+02
  19.380  0.4458E+00  0.4458E+00  0.2383E+02
  19.390  0.4453E+00  0.4453E+00  0.2384E+02
  19.400  0.4449E+00  0.4449E+00  0.2385E+02
  19.410  0.4444E+00  0.4444E+00  0.2385E+02
  19.420  0.4440E+00  0.4440E+00  0.2386E+02
  19.430  0.4436E+00  0.4436E+00  0.2387E+02
  19.440  0.4432E+00  0.4432E+00  0.2388E+02
  19.450  0.4428E+00  0.4428E+00  0.2389E+02
  19.460  0.4426E+00  0.4426E+00  0.2390E+02
  19.470  0.4441E+00  0.4441E+00  0.2391E+02
  19.480  0.4475E+00  0.4475E+00  0.2392E+02
  19.490  0.4534E+00  0.4534E+00  0.2393E+02
  19.500  0.4577E+00  0.4577E+00  0.2393E+02
  19.510  0.4537E+00  0.4537E+00  0.2394E+02
  19.520  0.4414E+00  0.4414E+00  0.2395E+02
  19.530  0.4279E+00  0.4279E+00  0.2396E+02
  19.540  0.4192E+00  0.4192E+00  0.2397E+02
  19.550  0.4103E+00  0.4103E+00  0.2398E+02
  19.560  0.4012E+00  0.4012E+00  0.2399E+02
  19.570  0.3918E+00  0.3918E+00  0.2399E+02
  19.580  0.3822E+00  0.3822E+00  0.2400E+02
  19.590  0.3724E+00  0.3724E+00  0.2401E+02
  19.600  0.3624E+00  0.3624E+00  0.2402E+02
  19.610  0.3521E+00  0.3521E+00  0.2402E+02
  19.620  0.3422E+00  0.3422E+00  0.2403E+02
  19.630  0.3331E+00  0.3331E+00  0.2404E+02
  19.640  0.3249E+00  0.3249E+00  0.2404E+02
  19.650  0.3187E+00  0.3187E+00  0.2405E+02
  19.660  0.3161E+00  0.3161E+00  0.2406E+02
  19.670  0.3148E+00  0.3148E+00  0.2406E+02
  19.680  0.3136E+00  0.3136E+00  0.2407E+02
  19.690  0.3124E+00  0.3124E+00  0.2408E+02
  19.700  0.3112E+00  0.3112E+00  0.2408E+02
  19.710  0.3101E+00  0.3101E+00  0.2409E+02
  19.720  0.3090E+00  0.3090E+00  0.2409E+02
  19.730  0.3080E+00  0.3080E+00  0.2410E+02
  19.740  0.3070E+00  0.3070E+00  0.2411E+02
  19.750  0.3060E+00  0.3060E+00  0.2411E+02
  19.760  0.3051E+00  0.3051E+00  0.2412E+02
  19.770  0.3042E+00  0.3042E+00  0.2413E+02
  19.780  0.3033E+00  0.3033E+00  0.2413E+02
  19.790  0.3026E+00  0.3026E+00  0.2414E+02
  19.800  0.3019E+00  0.3019E+00  0.2414E+02
  19.810  0.3014E+00  0.3014E+00  0.2415E+02
  19.820  0.3009E+00  0.3009E+00  0.2416E+02
  19.830  0.3004E+00  0.3004E+00  0.2416E+02
  19.840  0.3001E+00  0.3001E+00  0.2417E+02
  19.850  0.2998E+00  0.2998E+00  0.2417E+02
  19.860  0.2997E+00  0.2997E+00  0.2418E+02
  19.870  0.2996E+00  0.2996E+00  0.2419E+02
  19.880  0.2995E+00  0.2995E+00  0.2419E+02
  19.890  0.2995E+00  0.2995E+00  0.2420E+02
  19.900  0.2996E+00  0.2996E+00  0.2420E+02
  19.910  0.2997E+00  0.2997E+00  0.2421E+02
  19.920  0.2999E+00  0.2999E+00  0.2422E+02
  19.930  0.3000E+00  0.3000E+00  0.2422E+02
  19.940  0.3002E+00  0.3002E+00  0.2423E+02
  19.950  0.3007E+00  0.3007E+00  0.2423E+02
  19.960  0.3013E+00  0.3013E+00  0.2424E+02
  19.970  0.3022E+00  0.3022E+00  0.2425E+02
  19.980  0.3033E+00  0.3033E+00  0.2425E+02
  19.990  0.3047E+00  0.3047E+00  0.2426E+02
  20.000  0.3062E+00  0.3062E+00  0.2426E+02
  20.010  0.3081E+00  0.3081E+00  0.2427E+02
  20.020  0.3101E+00  0.3101E+00  0.2428E+02
  20.030  0.3124E+00  0.3124E+00  0.2428E+02
  20.040  0.3150E+00  0.3150E+00  0.2429E+02
  20.050  0.3179E+00  0.3179E+00  0.2430E+02
  20.060  0.3212E+00  0.3212E+00  0.2430E+02
  20.070  0.3248E+00  0.3248E+00  0.2431E+02
  20.080  0.3288E+00  0.3288E+00  0.2431E+02
  20.090  0.3331E+00  0.3331E+00  0.2432E+02
  20.100  0.3377E+00  0.3377E+00  0.2433E+02
  20.110  0.3435E+00  0.3435E+00  0.2433E+02
  20.120  0.3501E+00  0.3501E+00  0.2434E+02
  20.130  0.3584E+00  0.3584E+00  0.2435E+02
  20.140  0.3668E+00  0.3668E+00  0.2436E+02
  20.150  0.3746E+00  0.3746E+00  0.2436E+02
  20.160  0.3817E+00  0.3817E+00  0.2437E+02
  20.170  0.3883E+00  0.3883E+00  0.2438E+02
  20.180  0.3942E+00  0.3942E+00  0.2439E+02
  20.190  0.3991E+00  0.3991E+00  0.2439E+02
  20.200  0.4021E+00  0.4021E+00  0.2440E+02
  20.210  0.4046E+00  0.4046E+00  0.2441E+02
  20.220  0.4083E+00  0.4083E+00  0.2442E+02
  20.230  0.4161E+00  0.4161E+00  0.2443E+02
  20.240  0.4242E+00  0.4242E+00  0.2444E+02
  20.250  0.4329E+00  0.4329E+00  0.2444E+02
  20.260  0.4421E+00  0.4421E+00  0.2445E+02
  20.270  0.4518E+00  0.4518E+00  0.2446E+02
  20.280  0.4605E+00  0.4605E+00  0.2447E+02
  20.290  0.4676E+00  0.4676E+00  0.2448E+02
  20.300  0.4748E+00  0.4748E+00  0.2449E+02
  20.310  0.4819E+00  0.4819E+00  0.2450E+02
  20.320  0.4892E+00  0.4892E+00  0.2451E+02
  20.330  0.4965E+00  0.4965E+00  0.2452E+02
  20.340  0.5038E+00  0.5038E+00  0.2453E+02
  20.350  0.5112E+00  0.5112E+00  0.2454E+02
  20.360  0.5187E+00  0.5187E+00  0.2455E+02
  20.370  0.5262E+00  0.5262E+00  0.2456E+02
  20.380  0.5337E+00  0.5337E+00  0.2457E+02
  20.390  0.5413E+00  0.5413E+00  0.2458E+02
  20.400  0.5490E+00  0.5490E+00  0.2459E+02
  20.410  0.5560E+00  0.5560E+00  0.2460E+02
  20.420  0.5590E+00  0.5590E+00  0.2461E+02
  20.430  0.5619E+00  0.5619E+00  0.2462E+02
  20.440  0.5650E+00  0.5650E+00  0.2464E+02
  20.450  0.5683E+00  0.5683E+00  0.2465E+02
  20.460  0.5716E+00  0.5716E+00  0.2466E+02
  20.470  0.5749E+00  0.5749E+00  0.2467E+02
  20.480  0.5784E+00  0.5784E+00  0.2468E+02
  20.490  0.5820E+00  0.5820E+00  0.2469E+02
  20.500  0.5858E+00  0.5858E+00  0.2471E+02
  20.510  0.5901E+00  0.5901E+00  0.2472E+02
  20.520  0.6034E+00  0.6034E+00  0.2473E+02
  20.530  0.6244E+00  0.6244E+00  0.2474E+02
  20.540  0.6366E+00  0.6366E+00  0.2475E+02
  20.550  0.6400E+00  0.6400E+00  0.2477E+02
  20.560  0.6348E+00  0.6348E+00  0.2478E+02
  20.570  0.6208E+00  0.6208E+00  0.2479E+02
  20.580  0.5970E+00  0.5970E+00  0.2480E+02
  20.590  0.5851E+00  0.5851E+00  0.2482E+02
  20.600  0.5892E+00  0.5892E+00  0.2483E+02
  20.610  0.5928E+00  0.5928E+00  0.2484E+02
  20.620  0.5961E+00  0.5961E+00  0.2485E+02
  20.630  0.5991E+00  0.5991E+00  0.2486E+02
  20.640  0.6017E+00  0.6017E+00  0.2488E+02
  20.650  0.6039E+00  0.6039E+00  0.2489E+02
  20.660  0.6058E+00  0.6058E+00  0.2490E+02
  20.670  0.6073E+00  0.6073E+00  0.2491E+02
  20.680  0.6084E+00  0.6084E+00  0.2492E+02
  20.690  0.6091E+00  0.6091E+00  0.2494E+02
  20.700  0.6094E+00  0.6094E+00  0.2495E+02
  20.710  0.6093E+00  0.6093E+00  0.2496E+02
  20.720  0.6089E+00  0.6089E+00  0.2497E+02
  20.730  0.6086E+00  0.6086E+00  0.2498E+02
  20.740  0.6094E+00  0.6094E+00  0.2500E+02
  20.750  0.6128E+00  0.6128E+00  0.2501E+02
  20.760  0.6175E+00  0.6175E+00  0.2502E+02
  20.770  0.6237E+00  0.6237E+00  0.2503E+02
  20.780  0.6123E+00  0.6123E+00  0.2505E+02
  20.790  0.6015E+00  0.6015E+00  0.2506E+02
  20.800  0.5977E+00  0.5977E+00  0.2507E+02
  20.810  0.5944E+00  0.5944E+00  0.2508E+02
  20.820  0.5915E+00  0.5915E+00  0.2509E+02
  20.830  0.5891E+00  0.5891E+00  0.2511E+02
  20.840  0.5868E+00  0.5868E+00  0.2512E+02
  20.850  0.5844E+00  0.5844E+00  0.2513E+02
  20.860  0.5820E+00  0.5820E+00  0.2514E+02
  20.870  0.5795E+00  0.5795E+00  0.2515E+02
  20.880  0.5771E+00  0.5771E+00  0.2516E+02
  20.890  0.5746E+00  0.5746E+00  0.2518E+02
  20.900  0.5721E+00  0.5721E+00  0.2519E+02
  20.910  0.5696E+00  0.5696E+00  0.2520E+02
  20.920  0.5671E+00  0.5671E+00  0.2521E+02
  20.930  0.5646E+00  0.5646E+00  0.2522E+02
  20.940  0.5621E+00  0.5621E+00  0.2523E+02
  20.950  0.5595E+00  0.5595E+00  0.2524E+02
  20.960  0.5570E+00  0.5570E+00  0.2525E+02
  20.970  0.5544E+00  0.5544E+00  0.2527E+02
  20.980  0.5518E+00  0.5518E+00  0.2528E+02
  20.990  0.5492E+00  0.5492E+00  0.2529E+02
  21.000  0.5466E+00  0.5466E+00  0.2530E+02
  21.010  0.5439E+00  0.5439E+00  0.2531E+02
  21.020  0.5413E+00  0.5413E+00  0.2532E+02
  21.030  0.5386E+00  0.5386E+00  0.2533E+02
  21.040  0.5359E+00  0.5359E+00  0.2534E+02
  21.050  0.5331E+00  0.5331E+00  0.2535E+02
  21.060  0.5304E+00  0.5304E+00  0.2536E+02
  21.070  0.5276E+00  0.5276E+00  0.2537E+02
  21.080  0.5248E+00  0.5248E+00  0.2538E+02
  21.090  0.5220E+00  0.5220E+00  0.2540E+02
  21.100  0.5191E+00  0.5191E+00  0.2541E+02
  21.110  0.5162E+00  0.5162E+00  0.2542E+02
  21.120  0.5133E+00  0.5133E+00  0.2543E+02
  21.130  0.5104E+00  0.5104E+00  0.2544E+02
  21.140  0.5075E+00  0.5075E+00  0.2545E+02
  21.150  0.5043E+00  0.5043E+00  0.2546E+02
  21.160  0.5010E+00  0.5010E+00  0.2547E+02
  21.170  0.4976E+00  0.4976E+00  0.2548E+02
  21.180  0.4942E+00  0.4942E+00  0.2549E+02
  21.190  0.4907E+00  0.4907E+00  0.2550E+02
  21.200  0.4871E+00  0.4871E+00  0.2551E+02
  21.210  0.4835E+00  0.4835E+00  0.2552E+02
  21.220  0.4798E+00  0.4798E+00  0.2553E+02
  21.230  0.4761E+00  0.4761E+00  0.2554E+02
  21.240  0.4723E+00  0.4723E+00  0.2554E+02
  21.250  0.4684E+00  0.4684E+00  0.2555E+02
  21.260  0.4646E+00  0.4646E+00  0.2556E+02
  21.270  0.4608E+00  0.4608E+00  0.2557E+02
  21.280  0.4568E+00  0.4568E+00  0.2558E+02
  21.290  0.4525E+00  0.4525E+00  0.2559E+02
  21.300  0.4479E+00  0.4479E+00  0.2560E+02
  21.310  0.4432E+00  0.4432E+00  0.2561E+02
  21.320  0.4365E+00  0.4365E+00  0.2562E+02
  21.330  0.4285E+00  0.4285E+00  0.2563E+02
  21.340  0.4197E+00  0.4197E+00  0.2563E+02
  21.350  0.4134E+00  0.4134E+00  0.2564E+02
  21.360  0.4088E+00  0.4088E+00  0.2565E+02
  21.370  0.4043E+00  0.4043E+00  0.2566E+02
  21.380  0.3998E+00  0.3998E+00  0.2567E+02
  21.390  0.3954E+00  0.3954E+00  0.2568E+02
  21.400  0.3908E+00  0.3908E+00  0.2568E+02
  21.410  0.3863E+00  0.3863E+00  0.2569E+02
  21.420  0.3818E+00  0.3818E+00  0.2570E+02
  21.430  0.3774E+00  0.3774E+00  0.2571E+02
  21.440  0.3731E+00  0.3731E+00  0.2571E+02
  21.450  0.3688E+00  0.3688E+00  0.2572E+02
  21.460  0.3647E+00  0.3647E+00  0.2573E+02
  21.470  0.3606E+00  0.3606E+00  0.2574E+02
  21.480  0.3566E+00  0.3566E+00  0.2574E+02
  21.490  0.3527E+00  0.3527E+00  0.2575E+02
  21.500  0.3488E+00  0.3488E+00  0.2576E+02
  21.510  0.3451E+00  0.3451E+00  0.2576E+02
  21.520  0.3414E+00  0.3414E+00  0.2577E+02
  21.530  0.3379E+00  0.3379E+00  0.2578E+02
  21.540  0.3345E+00  0.3345E+00  0.2578E+02
  21.550  0.3312E+00  0.3312E+00  0.2579E+02
  21.560  0.3279E+00  0.3279E+00  0.2580E+02
  21.570  0.3247E+00  0.3247E+00  0.2580E+02
  21.580  0.3227E+00  0.3227E+00  0.2581E+02
  21.590  0.3214E+00  0.3214E+00  0.2582E+02
  21.600  0.3202E+00  0.3202E+00  0.2582E+02
  21.610  0.3192E+00  0.3192E+00  0.2583E+02
  21.620  0.3184E+00  0.3184E+00  0.2584E+02
  21.630  0.3176E+00  0.3176E+00  0.2584E+02
  21.640  0.3169E+00  0.3169E+00  0.2585E+02
  21.650  0.3163E+00  0.3163E+00  0.2586E+02
  21.660  0.3156E+00  0.3156E+00  0.2586E+02
  21.670  0.3151E+00  0.3151E+00  0.2587E+02
  21.680  0.3145E+00  0.3145E+00  0.2587E+02
  21.690  0.3140E+00  0.3140E+00  0.2588E+02
  21.700  0.3136E+00  0.3136E+00  0.2589E+02
  21.710  0.3132E+00  0.3132E+00  0.2589E+02
  21.720  0.3129E+00  0.3129E+00  0.2590E+02
  21.730  0.3126E+00  0.3126E+00  0.2591E+02
  21.740  0.3123E+00  0.3123E+00  0.2591E+02
  21.750  0.3121E+00  0.3121E+00  0.2592E+02
  21.760  0.3119E+00  0.3119E+00  0.2592E+02
  21.770  0.3118E+00  0.3118E+00  0.2593E+02
  21.780  0.3117E+00  0.3117E+00  0.2594E+02
  21.790  0.3118E+00  0.3118E+00  0.2594E+02
  21.800  0.3119E+00  0.3119E+00  0.2595E+02
  21.810  0.3121E+00  0.3121E+00  0.2596E+02
  21.820  0.3124E+00  0.3124E+00  0.2596E+02
  21.830  0.3128E+00  0.3128E+00  0.2597E+02
  21.840  0.3133E+00  0.3133E+00  0.2597E+02
  21.850  0.3138E+00  0.3138E+00  0.2598E+02
  21.860  0.3145E+00  0.3145E+00  0.2599E+02
  21.870  0.3152E+00  0.3152E+00  0.2599E+02
  21.880  0.3163E+00  0.3163E+00  0.2600E+02
  21.890  0.3189E+00  0.3189E+00  0.2601E+02
  21.900  0.3237E+00  0.3237E+00  0.2601E+02
  21.910  0.3312E+00  0.3312E+00  0.2602E+02
  21.920  0.3400E+00  0.3400E+00  0.2603E+02
  21.930  0.3500E+00  0.3500E+00  0.2603E+02
  21.940  0.3611E+00  0.3611E+00  0.2604E+02
  21.950  0.3668E+00  0.3668E+00  0.2605E+02
  21.960  0.3729E+00  0.3729E+00  0.2605E+02
  21.970  0.3795E+00  0.3795E+00  0.2606E+02
  21.980  0.3872E+00  0.3872E+00  0.2607E+02
  21.990  0.3950E+00  0.3950E+00  0.2608E+02
  22.000  0.4036E+00  0.4036E+00  0.2609E+02
  22.010  0.4130E+00  0.4130E+00  0.2609E+02
  22.020  0.4175E+00  0.4175E+00  0.2610E+02
  22.030  0.4220E+00  0.4220E+00  0.2611E+02
  22.040  0.4264E+00  0.4264E+00  0.2612E+02
  22.050  0.4306E+00  0.4306E+00  0.2613E+02
  22.060  0.4346E+00  0.4346E+00  0.2614E+02
  22.070  0.4385E+00  0.4385E+00  0.2614E+02
  22.080  0.4423E+00  0.4423E+00  0.2615E+02
  22.090  0.4459E+00  0.4459E+00  0.2616E+02
  22.100  0.4494E+00  0.4494E+00  0.2617E+02
  22.110  0.4527E+00  0.4527E+00  0.2618E+02
  22.120  0.4559E+00  0.4559E+00  0.2619E+02
  22.130  0.4589E+00  0.4589E+00  0.2620E+02
  22.140  0.4618E+00  0.4618E+00  0.2621E+02
  22.150  0.5005E+00  0.5005E+00  0.2622E+02
  22.160  0.4752E+00  0.4752E+00  0.2623E+02
  22.170  0.4771E+00  0.4770E+00  0.2624E+02
  22.180  0.4787E+00  0.4787E+00  0.2625E+02
  22.190  0.4800E+00  0.4800E+00  0.2626E+02
  22.200  0.4812E+00  0.4812E+00  0.2627E+02
  22.210  0.4821E+00  0.4821E+00  0.2628E+02
  22.220  0.4829E+00  0.4829E+00  0.2628E+02
  22.230  0.4835E+00  0.4835E+00  0.2629E+02
  22.240  0.4849E+00  0.4849E+00  0.2630E+02
  22.250  0.4856E+00  0.4856E+00  0.2631E+02
  22.260  0.4845E+00  0.4845E+00  0.2632E+02
  22.270  0.4830E+00  0.4830E+00  0.2633E+02
  22.280  0.4813E+00  0.4813E+00  0.2634E+02
  22.290  0.4792E+00  0.4792E+00  0.2635E+02
  22.300  0.4776E+00  0.4776E+00  0.2636E+02
  22.310  0.4777E+00  0.4777E+00  0.2637E+02
  22.320  0.4797E+00  0.4797E+00  0.2638E+02
  22.330  0.4818E+00  0.4818E+00  0.2639E+02
  22.340  0.4840E+00  0.4840E+00  0.2640E+02
  22.350  0.4864E+00  0.4864E+00  0.2641E+02
  22.360  0.4890E+00  0.4890E+00  0.2642E+02
  22.370  0.4916E+00  0.4916E+00  0.2643E+02
  22.380  0.4945E+00  0.4945E+00  0.2644E+02
  22.390  0.4976E+00  0.4976E+00  0.2645E+02
  22.400  0.5007E+00  0.5007E+00  0.2646E+02
  22.410  0.5040E+00  0.5040E+00  0.2647E+02
  22.420  0.5072E+00  0.5072E+00  0.2648E+02
  22.430  0.5104E+00  0.5104E+00  0.2649E+02
  22.440  0.5136E+00  0.5136E+00  0.2650E+02
  22.450  0.5167E+00  0.5167E+00  0.2651E+02
  22.460  0.5198E+00  0.5198E+00  0.2652E+02
  22.470  0.5229E+00  0.5229E+00  0.2653E+02
  22.480  0.5259E+00  0.5259E+00  0.2654E+02
  22.490  0.5289E+00  0.5289E+00  0.2655E+02
  22.500  0.5320E+00  0.5320E+00  0.2656E+02
  22.510  0.5349E+00  0.5349E+00  0.2657E+02
  22.520  0.5379E+00  0.5379E+00  0.2658E+02
  22.530  0.5408E+00  0.5408E+00  0.2659E+02
  22.540  0.5437E+00  0.5437E+00  0.2661E+02
  22.550  0.5466E+00  0.5466E+00  0.2662E+02
  22.560  0.5494E+00  0.5494E+00  0.2663E+02
  22.570  0.5522E+00  0.5522E+00  0.2664E+02
  22.580  0.5550E+00  0.5550E+00  0.2665E+02
  22.590  0.5577E+00  0.5577E+00  0.2666E+02
  22.600  0.5604E+00  0.5604E+00  0.2667E+02
  22.610  0.5631E+00  0.5631E+00  0.2668E+02
  22.620  0.5654E+00  0.5654E+00  0.2669E+02
  22.630  0.5677E+00  0.5677E+00  0.2671E+02
  22.640  0.5704E+00  0.5704E+00  0.2672E+02
  22.650  0.5732E+00  0.5732E+00  0.2673E+02
  22.660  0.5762E+00  0.5762E+00  0.2674E+02
  22.670  0.5792E+00  0.5792E+00  0.2675E+02
  22.680  0.5823E+00  0.5823E+00  0.2676E+02
  22.690  0.5854E+00  0.5854E+00  0.2678E+02
  22.700  0.5885E+00  0.5886E+00  0.2679E+02
  22.710  0.5913E+00  0.5913E+00  0.2680E+02
  22.720  0.5937E+00  0.5937E+00  0.2681E+02
  22.730  0.5957E+00  0.5957E+00  0.2682E+02
  22.740  0.5984E+00  0.5984E+00  0.2683E+02
  22.750  0.6010E+00  0.6010E+00  0.2685E+02
  22.760  0.6033E+00  0.6033E+00  0.2686E+02
  22.770  0.6053E+00  0.6053E+00  0.2687E+02
  22.780  0.6084E+00  0.6084E+00  0.2688E+02
  22.790  0.6148E+00  0.6148E+00  0.2689E+02
  22.800  0.6174E+00  0.6174E+00  0.2691E+02
  22.810  0.6155E+00  0.6155E+00  0.2692E+02
  22.820  0.6091E+00  0.6091E+00  0.2693E+02
  22.830  0.5990E+00  0.5990E+00  0.2694E+02
  22.840  0.5950E+00  0.5950E+00  0.2696E+02
  22.850  0.5949E+00  0.5949E+00  0.2697E+02
  22.860  0.5947E+00  0.5947E+00  0.2698E+02
  22.870  0.5945E+00  0.5945E+00  0.2699E+02
  22.880  0.5943E+00  0.5943E+00  0.2700E+02
  22.890  0.5941E+00  0.5941E+00  0.2702E+02
  22.900  0.5938E+00  0.5939E+00  0.2703E+02
  22.910  0.5936E+00  0.5936E+00  0.2704E+02
  22.920  0.5933E+00  0.5933E+00  0.2705E+02
  22.930  0.5931E+00  0.5931E+00  0.2706E+02
  22.940  0.5928E+00  0.5928E+00  0.2707E+02
  22.950  0.5924E+00  0.5924E+00  0.2709E+02
  22.960  0.5921E+00  0.5921E+00  0.2710E+02
  22.970  0.5918E+00  0.5918E+00  0.2711E+02
  22.980  0.5914E+00  0.5914E+00  0.2712E+02
  22.990  0.5892E+00  0.5892E+00  0.2713E+02
  23.000  0.5861E+00  0.5861E+00  0.2715E+02
  23.010  0.5826E+00  0.5826E+00  0.2716E+02
  23.020  0.5788E+00  0.5788E+00  0.2717E+02
  23.030  0.5751E+00  0.5751E+00  0.2718E+02
  23.040  0.5714E+00  0.5714E+00  0.2719E+02
  23.050  0.5680E+00  0.5680E+00  0.2720E+02
  23.060  0.5647E+00  0.5647E+00  0.2721E+02
  23.070  0.5616E+00  0.5616E+00  0.2723E+02
  23.080  0.5587E+00  0.5587E+00  0.2724E+02
  23.090  0.5560E+00  0.5560E+00  0.2725E+02
  23.100  0.5534E+00  0.5534E+00  0.2726E+02
  23.110  0.5509E+00  0.5509E+00  0.2727E+02
  23.120  0.5486E+00  0.5486E+00  0.2728E+02
  23.130  0.5463E+00  0.5463E+00  0.2729E+02
  23.140  0.5440E+00  0.5440E+00  0.2730E+02
  23.150  0.5418E+00  0.5418E+00  0.2731E+02
  23.160  0.5397E+00  0.5397E+00  0.2732E+02
  23.170  0.5377E+00  0.5377E+00  0.2734E+02
  23.180  0.5357E+00  0.5357E+00  0.2735E+02
  23.190  0.5337E+00  0.5337E+00  0.2736E+02
  23.200  0.5319E+00  0.5319E+00  0.2737E+02
  23.210  0.5301E+00  0.5301E+00  0.2738E+02
  23.220  0.5283E+00  0.5283E+00  0.2739E+02
  23.230  0.5266E+00  0.5266E+00  0.2740E+02
  23.240  0.5250E+00  0.5250E+00  0.2741E+02
  23.250  0.5234E+00  0.5234E+00  0.2742E+02
  23.260  0.5218E+00  0.5218E+00  0.2743E+02
  23.270  0.5201E+00  0.5201E+00  0.2744E+02
  23.280  0.5185E+00  0.5185E+00  0.2745E+02
  23.290  0.5171E+00  0.5171E+00  0.2746E+02
  23.300  0.5158E+00  0.5158E+00  0.2747E+02
  23.310  0.5147E+00  0.5147E+00  0.2748E+02
  23.320  0.5135E+00  0.5135E+00  0.2749E+02
  23.330  0.5124E+00  0.5124E+00  0.2750E+02
  23.340  0.5116E+00  0.5116E+00  0.2751E+02
  23.350  0.5107E+00  0.5107E+00  0.2752E+02
  23.360  0.5100E+00  0.5099E+00  0.2753E+02
  23.370  0.5092E+00  0.5092E+00  0.2754E+02
  23.380  0.5085E+00  0.5085E+00  0.2755E+02
  23.390  0.5078E+00  0.5078E+00  0.2756E+02
  23.400  0.5072E+00  0.5072E+00  0.2757E+02
  23.410  0.5066E+00  0.5066E+00  0.2758E+02
  23.420  0.5061E+00  0.5061E+00  0.2759E+02
  23.430  0.5056E+00  0.5056E+00  0.2760E+02
  23.440  0.5051E+00  0.5051E+00  0.2761E+02
  23.450  0.5047E+00  0.5047E+00  0.2763E+02
  23.460  0.5043E+00  0.5043E+00  0.2764E+02
  23.470  0.5040E+00  0.5040E+00  0.2765E+02
  23.480  0.5037E+00  0.5037E+00  0.2766E+02
  23.490  0.5034E+00  0.5034E+00  0.2767E+02
  23.500  0.5032E+00  0.5032E+00  0.2768E+02
  23.510  0.5031E+00  0.5031E+00  0.2769E+02
  23.520  0.5030E+00  0.5030E+00  0.2770E+02
  23.530  0.5030E+00  0.5030E+00  0.2771E+02
  23.540  0.5030E+00  0.5030E+00  0.2772E+02
  23.550  0.5031E+00  0.5031E+00  0.2773E+02
  23.560  0.5032E+00  0.5032E+00  0.2774E+02
  23.570  0.5033E+00  0.5033E+00  0.2775E+02
  23.580  0.5090E+00  0.5090E+00  0.2776E+02
  23.590  0.5157E+00  0.5157E+00  0.2777E+02
  23.600  0.5139E+00  0.5139E+00  0.2778E+02
  23.610  0.5123E+00  0.5123E+00  0.2779E+02
  23.620  0.5107E+00  0.5107E+00  0.2780E+02
  23.630  0.5093E+00  0.5093E+00  0.2781E+02
  23.640  0.5080E+00  0.5080E+00  0.2782E+02
  23.650  0.5068E+00  0.5068E+00  0.2783E+02
  23.660  0.5059E+00  0.5059E+00  0.2784E+02
  23.670  0.5051E+00  0.5051E+00  0.2785E+02
  23.680  0.5044E+00  0.5044E+00  0.2786E+02
  23.690  0.5040E+00  0.5040E+00  0.2787E+02
  23.700  0.5037E+00  0.5037E+00  0.2788E+02
  23.710  0.5034E+00  0.5034E+00  0.2789E+02
  23.720  0.5032E+00  0.5032E+00  0.2790E+02
  23.730  0.5034E+00  0.5034E+00  0.2791E+02
  23.740  0.5037E+00  0.5037E+00  0.2792E+02
  23.750  0.5039E+00  0.5039E+00  0.2793E+02
  23.760  0.5040E+00  0.5040E+00  0.2794E+02
  23.770  0.5041E+00  0.5041E+00  0.2795E+02
  23.780  0.5043E+00  0.5043E+00  0.2796E+02
  23.790  0.5045E+00  0.5045E+00  0.2797E+02
  23.800  0.5048E+00  0.5048E+00  0.2798E+02
  23.810  0.5050E+00  0.5050E+00  0.2799E+02
  23.820  0.5054E+00  0.5054E+00  0.2800E+02
  23.830  0.5057E+00  0.5057E+00  0.2801E+02
  23.840  0.5062E+00  0.5062E+00  0.2802E+02
  23.850  0.5066E+00  0.5066E+00  0.2803E+02
  23.860  0.5071E+00  0.5071E+00  0.2804E+02
  23.870  0.5076E+00  0.5076E+00  0.2805E+02
  23.880  0.5083E+00  0.5083E+00  0.2806E+02
  23.890  0.5091E+00  0.5091E+00  0.2807E+02
  23.900  0.5101E+00  0.5101E+00  0.2808E+02
  23.910  0.5111E+00  0.5111E+00  0.2809E+02
  23.920  0.5122E+00  0.5122E+00  0.2810E+02
  23.930  0.5134E+00  0.5134E+00  0.2811E+02
  23.940  0.5147E+00  0.5147E+00  0.2812E+02
  23.950  0.5160E+00  0.5160E+00  0.2813E+02
  23.960  0.5174E+00  0.5174E+00  0.2814E+02
  23.970  0.5188E+00  0.5188E+00  0.2815E+02
  23.980  0.5203E+00  0.5203E+00  0.2816E+02
  23.990  0.5219E+00  0.5219E+00  0.2817E+02
  24.000  0.5235E+00  0.5235E+00  0.2818E+02
  24.010  0.5255E+00  0.5255E+00  0.2819E+02
  24.020  0.5278E+00  0.5278E+00  0.2820E+02
  24.030  0.5302E+00  0.5302E+00  0.2822E+02
  24.040  0.5327E+00  0.5327E+00  0.2823E+02
  24.050  0.5349E+00  0.5349E+00  0.2824E+02
  24.060  0.5364E+00  0.5364E+00  0.2825E+02
  24.070  0.5371E+00  0.5371E+00  0.2826E+02
  24.080  0.5371E+00  0.5371E+00  0.2827E+02
  24.090  0.5363E+00  0.5363E+00  0.2828E+02
  24.100  0.5350E+00  0.5350E+00  0.2829E+02
  24.110  0.5356E+00  0.5356E+00  0.2830E+02
  24.120  0.5359E+00  0.5359E+00  0.2831E+02
  24.130  0.5359E+00  0.5359E+00  0.2832E+02
  24.140  0.5356E+00  0.5356E+00  0.2833E+02
  24.150  0.5350E+00  0.5350E+00  0.2834E+02
  24.160  0.5341E+00  0.5341E+00  0.2835E+02
  24.170  0.5329E+00  0.5329E+00  0.2836E+02
  24.180  0.5314E+00  0.5314E+00  0.2838E+02
  24.190  0.5297E+00  0.5297E+00  0.2839E+02
  24.200  0.5314E+00  0.5314E+00  0.2840E+02
  24.210  0.5337E+00  0.5337E+00  0.2841E+02
  24.220  0.5360E+00  0.5360E+00  0.2842E+02
  24.230  0.5383E+00  0.5383E+00  0.2843E+02
  24.240  0.5407E+00  0.5407E+00  0.2844E+02
  24.250  0.5430E+00  0.5430E+00  0.2845E+02
  24.260  0.5453E+00  0.5453E+00  0.2846E+02
  24.270  0.5475E+00  0.5475E+00  0.2847E+02
  24.280  0.5493E+00  0.5493E+00  0.2848E+02
  24.290  0.5506E+00  0.5506E+00  0.2849E+02
  24.300  0.5520E+00  0.5520E+00  0.2851E+02
  24.310  0.5533E+00  0.5533E+00  0.2852E+02
  24.320  0.5547E+00  0.5547E+00  0.2853E+02
  24.330  0.5561E+00  0.5561E+00  0.2854E+02
  24.340  0.5574E+00  0.5574E+00  0.2855E+02
  24.350  0.5588E+00  0.5588E+00  0.2856E+02
  24.360  0.5601E+00  0.5601E+00  0.2857E+02
  24.370  0.5615E+00  0.5615E+00  0.2858E+02
  24.380  0.5627E+00  0.5627E+00  0.2859E+02
  24.390  0.5640E+00  0.5640E+00  0.2861E+02
  24.400  0.5652E+00  0.5652E+00  0.2862E+02
  24.410  0.5664E+00  0.5664E+00  0.2863E+02
  24.420  0.5674E+00  0.5674E+00  0.2864E+02
  24.430  0.5684E+00  0.5684E+00  0.2865E+02
  24.440  0.5693E+00  0.5693E+00  0.2866E+02
  24.450  0.5702E+00  0.5702E+00  0.2867E+02
  24.460  0.5710E+00  0.5710E+00  0.2869E+02
  24.470  0.5717E+00  0.5717E+00  0.2870E+02
  24.480  0.5725E+00  0.5725E+00  0.2871E+02
  24.490  0.5731E+00  0.5731E+00  0.2872E+02
  24.500  0.5736E+00  0.5736E+00  0.2873E+02
  24.510  0.5738E+00  0.5738E+00  0.2874E+02
  24.520  0.5735E+00  0.5735E+00  0.2875E+02
  24.530  0.5728E+00  0.5728E+00  0.2877E+02
  24.540  0.5721E+00  0.5720E+00  0.2878E+02
  24.550  0.5711E+00  0.5711E+00  0.2879E+02
  24.560  0.5700E+00  0.5700E+00  0.2880E+02
  24.570  0.5690E+00  0.5690E+00  0.2881E+02
  24.580  0.5679E+00  0.5679E+00  0.2882E+02
  24.590  0.5667E+00  0.5667E+00  0.2883E+02
  24.600  0.5654E+00  0.5654E+00  0.2885E+02
  24.610  0.5640E+00  0.5640E+00  0.2886E+02
  24.620  0.5529E+00  0.5529E+00  0.2887E+02
  24.630  0.5497E+00  0.5497E+00  0.2888E+02
  24.640  0.5484E+00  0.5484E+00  0.2889E+02
  24.650  0.5472E+00  0.5472E+00  0.2890E+02
  24.660  0.5459E+00  0.5459E+00  0.2891E+02
  24.670  0.5448E+00  0.5448E+00  0.2892E+02
  24.680  0.5437E+00  0.5437E+00  0.2893E+02
  24.690  0.5425E+00  0.5425E+00  0.2894E+02
  24.700  0.5413E+00  0.5413E+00  0.2896E+02
  24.710  0.5400E+00  0.5400E+00  0.2897E+02
  24.720  0.5387E+00  0.5387E+00  0.2898E+02
  24.730  0.5373E+00  0.5373E+00  0.2899E+02
  24.740  0.5359E+00  0.5359E+00  0.2900E+02
  24.750  0.5344E+00  0.5344E+00  0.2901E+02
  24.760  0.5329E+00  0.5329E+00  0.2902E+02
  24.770  0.5315E+00  0.5315E+00  0.2903E+02
  24.780  0.5302E+00  0.5302E+00  0.2904E+02
  24.790  0.5289E+00  0.5289E+00  0.2905E+02
  24.800  0.5279E+00  0.5279E+00  0.2906E+02
  24.810  0.5270E+00  0.5270E+00  0.2907E+02
  24.820  0.5261E+00  0.5261E+00  0.2908E+02
  24.830  0.5253E+00  0.5253E+00  0.2909E+02
  24.840  0.5244E+00  0.5244E+00  0.2910E+02
  24.850  0.5234E+00  0.5234E+00  0.2911E+02
  24.860  0.5224E+00  0.5224E+00  0.2912E+02
  24.870  0.5212E+00  0.5212E+00  0.2914E+02
  24.880  0.5201E+00  0.5201E+00  0.2915E+02
  24.890  0.5190E+00  0.5190E+00  0.2916E+02
  24.900  0.5179E+00  0.5179E+00  0.2917E+02
  24.910  0.5168E+00  0.5168E+00  0.2918E+02
  24.920  0.5158E+00  0.5158E+00  0.2919E+02
  24.930  0.5147E+00  0.5147E+00  0.2920E+02
  24.940  0.5137E+00  0.5137E+00  0.2921E+02
  24.950  0.5126E+00  0.5126E+00  0.2922E+02
  24.960  0.5116E+00  0.5116E+00  0.2923E+02
  24.970  0.5106E+00  0.5106E+00  0.2924E+02
  24.980  0.5096E+00  0.5096E+00  0.2925E+02
  24.990  0.5085E+00  0.5085E+00  0.2926E+02
  25.000  0.5076E+00  0.5076E+00  0.2927E+02
